 Output of condall.f V.22.05.99: Lg(th.conduct.) vs lg(T)[1st row] and lg(rho)[1st col.] The corner is Zion. Multipart table (various Zion)
   1.00   3.000  3.333  3.667  4.000  4.333  4.667  5.000  5.333  5.667  6.000  6.333  6.667  7.000  7.333  7.667  8.000  8.333  8.667  9.000
  -6.00   3.040  3.752  4.491  5.247  6.013  6.788  7.570  8.356  9.147  9.942 10.739 11.539 12.340 13.141 13.940 14.733 15.513 16.273 17.006
  -5.75   3.096  3.794  4.525  5.275  6.037  6.809  7.588  8.373  9.163  9.956 10.752 11.551 12.351 13.151 13.950 14.742 15.523 16.283 17.017
  -5.50   3.161  3.841  4.561  5.305  6.063  6.832  7.608  8.391  9.179  9.970 10.765 11.563 12.362 13.162 13.960 14.752 15.532 16.292 17.027
  -5.25   3.238  3.893  4.600  5.337  6.090  6.855  7.629  8.409  9.195  9.985 10.779 11.576 12.374 13.173 13.971 14.762 15.542 16.302 17.037
  -5.00   3.328  3.952  4.644  5.371  6.119  6.880  7.650  8.428  9.212 10.001 10.794 11.589 12.387 13.185 13.981 14.772 15.551 16.311 17.046
  -4.75   3.437  4.020  4.692  5.408  6.149  6.906  7.673  8.448  9.230 10.017 10.808 11.603 12.399 13.196 13.992 14.782 15.561 16.321 17.056
  -4.50   3.568  4.101  4.746  5.449  6.182  6.933  7.697  8.469  9.249 10.034 10.824 11.617 12.412 13.208 14.003 14.793 15.571 16.330 17.065
  -4.25   3.723  4.197  4.808  5.494  6.217  6.962  7.722  8.491  9.268 10.052 10.840 11.631 12.425 13.221 14.015 14.804 15.581 16.340 17.074
  -4.00   3.901  4.311  4.880  5.544  6.255  6.994  7.748  8.514  9.289 10.070 10.856 11.646 12.439 13.233 14.027 14.815 15.592 16.350 17.084
  -3.75   4.099  4.447  4.965  5.600  6.297  7.027  7.776  8.538  9.310 10.089 10.873 11.662 12.453 13.246 14.039 14.826 15.602 16.360 17.093
  -3.50   4.314  4.605  5.066  5.665  6.344  7.063  7.806  8.564  9.332 10.108 10.891 11.678 12.468 13.260 14.051 14.838 15.613 16.370 17.103
  -3.25   4.543  4.782  5.186  5.741  6.395  7.102  7.838  8.591  9.356 10.129 10.909 11.694 12.483 13.274 14.064 14.850 15.624 16.380 17.113
  -3.00   4.783  4.975  5.325  5.831  6.454  7.146  7.872  8.619  9.380 10.151 10.928 11.711 12.499 13.288 14.077 14.862 15.636 16.391 17.123
  -2.75   5.031  5.183  5.484  5.936  6.523  7.193  7.909  8.650  9.406 10.173 10.948 11.729 12.515 13.303 14.091 14.875 15.648 16.402 17.133
  -2.50   5.275  5.403  5.658  6.060  6.603  7.247  7.949  8.682  9.433 10.197 10.969 11.748 12.532 13.318 14.105 14.888 15.660 16.413 17.144
  -2.25   5.503  5.631  5.848  6.202  6.697  7.309  7.994  8.717  9.462 10.222 10.991 11.767 12.549 13.334 14.119 14.901 15.672 16.425 17.155
  -2.00   5.717  5.857  6.052  6.361  6.807  7.381  8.043  8.755  9.493 10.248 11.014 11.788 12.567 13.350 14.134 14.915 15.685 16.437 17.166
  -1.75   5.931  6.074  6.266  6.535  6.934  7.465  8.099  8.796  9.526 10.275 11.038 11.809 12.586 13.367 14.150 14.929 15.698 16.449 17.177
  -1.50   6.155  6.284  6.482  6.726  7.079  7.563  8.164  8.842  9.561 10.305 11.063 11.831 12.606 13.385 14.166 14.944 15.712 16.462 17.189
  -1.25   6.393  6.497  6.694  6.931  7.241  7.678  8.239  8.893  9.600 10.336 11.089 11.854 12.626 13.403 14.183 14.959 15.726 16.475 17.201
  -1.00   6.648  6.721  6.904  7.143  7.422  7.810  8.328  8.951  9.642 10.369 11.117 11.878 12.648 13.423 14.200 14.975 15.740 16.488 17.213
  -0.75   6.925  6.958  7.119  7.357  7.621  7.961  8.431  9.019  9.689 10.405 11.147 11.903 12.670 13.442 14.218 14.991 15.755 16.502 17.226
  -0.50   7.228  7.211  7.343  7.572  7.834  8.134  8.552  9.099  9.742 10.444 11.178 11.930 12.693 13.463 14.236 15.008 15.770 16.516 17.239
  -0.25   7.558  7.484  7.578  7.791  8.053  8.329  8.693  9.193  9.804 10.488 11.212 11.958 12.717 13.485 14.256 15.025 15.786 16.531 17.253
   0.00   7.915  7.781  7.828  8.018  8.276  8.544  8.859  9.304  9.876 10.536 11.248 11.988 12.743 13.507 14.276 15.043 15.803 16.546 17.267
   0.25   8.295  8.104  8.094  8.253  8.503  8.771  9.051  9.436  9.961 10.592 11.288 12.020 12.770 13.530 14.296 15.062 15.820 16.562 17.281
   0.50   8.695  8.456  8.381  8.499  8.735  9.005  9.268  9.594 10.063 10.657 11.333 12.054 12.798 13.555 14.318 15.082 15.838 16.578 17.296
   0.75   9.109  8.834  8.693  8.757  8.972  9.241  9.502  9.783 10.186 10.735 11.384 12.091 12.828 13.580 14.341 15.102 15.856 16.595 17.311
   1.00   9.535  9.234  9.033  9.033  9.217  9.481  9.745 10.001 10.338 10.828 11.443 12.131 12.859 13.607 14.364 15.123 15.875 16.612 17.327
   1.25   9.968  9.651  9.402  9.330  9.471  9.723  9.993 10.240 10.522 10.944 11.513 12.178 12.894 13.635 14.389 15.145 15.895 16.630 17.344
   1.50  10.407 10.081  9.797  9.654  9.737  9.970 10.242 10.492 10.739 11.089 11.600 12.232 12.931 13.665 14.414 15.168 15.916 16.649 17.361
   1.75  10.851 10.520 10.213 10.007 10.020 10.223 10.492 10.749 10.981 11.268 11.708 12.296 12.974 13.697 14.441 15.191 15.937 16.669 17.379
   2.00  11.300 10.966 10.645 10.390 10.325 10.483 10.744 11.008 11.239 11.482 11.846 12.376 13.023 13.732 14.469 15.216 15.959 16.689 17.397
   2.25  11.752 11.417 11.088 10.798 10.658 10.755 10.998 11.267 11.504 11.725 12.019 12.478 13.082 13.771 14.499 15.241 15.982 16.710 17.416
   2.50  12.208 11.872 11.539 11.226 11.021 11.044 11.256 11.526 11.773 11.985 12.229 12.609 13.156 13.816 14.531 15.268 16.006 16.732 17.436
   2.75  12.667 12.331 11.995 11.670 11.413 11.356 11.522 11.784 12.041 12.256 12.469 12.775 13.251 13.870 14.567 15.296 16.030 16.754 17.457
   3.00  13.128 12.793 12.456 12.123 11.831 11.697 11.799 12.044 12.307 12.532 12.730 12.980 13.375 13.938 14.608 15.326 16.056 16.778 17.479
   3.25  13.593 13.257 12.920 12.584 12.268 12.068 12.095 12.307 12.572 12.807 13.003 13.215 13.535 14.027 14.658 15.359 16.083 16.802 17.501
   3.50  14.059 13.724 13.387 13.049 12.720 12.468 12.414 12.577 12.835 13.081 13.283 13.472 13.732 14.144 14.720 15.396 16.111 16.827 17.524
   3.75  14.528 14.193 13.857 13.518 13.182 12.892 12.763 12.859 13.098 13.352 13.564 13.744 13.960 14.296 14.802 15.442 16.142 16.854 17.549
   4.00  14.999 14.664 14.328 13.990 13.650 13.335 13.142 13.161 13.363 13.619 13.843 14.023 14.211 14.484 14.912 15.499 16.177 16.881 17.574
   4.25  15.436 15.102 14.766 14.427 14.086 13.792 13.548 13.489 13.636 13.884 14.118 14.305 14.475 14.702 15.054 15.574 16.218 16.911 17.601
   4.50  15.944 15.580 15.244 14.907 14.565 14.222 13.976 13.846 13.922 14.147 14.388 14.586 14.748 14.940 15.230 15.675 16.270 16.944 17.629
   4.75  16.418 16.058 15.722 15.385 15.045 14.700 14.420 14.231 14.229 14.411 14.653 14.862 15.024 15.192 15.434 15.805 16.338 16.983 17.658
   5.00  16.892 16.534 16.199 15.863 15.523 15.178 14.876 14.639 14.562 14.682 14.912 15.130 15.299 15.449 15.654 15.966 16.428 17.030 17.691
   5.25  17.363 17.008 16.673 16.337 15.998 15.654 15.304 15.065 14.924 14.967 15.167 15.390 15.567 15.709 15.883 16.148 16.544 17.091 17.728
   5.50  17.831 17.496 17.143 16.807 16.469 16.126 15.776 15.502 15.308 15.272 15.420 15.640 15.826 15.965 16.116 16.344 16.683 17.169 17.772
   5.75  18.293 17.959 17.606 17.271 16.934 16.592 16.242 15.943 15.710 15.603 15.678 15.879 16.072 16.213 16.346 16.544 16.841 17.267 17.826
   6.00  18.747 18.413 18.062 17.727 17.390 17.049 16.701 16.343 16.121 15.956 15.948 16.109 16.304 16.451 16.572 16.743 17.007 17.384 17.893
   6.25  19.192 18.859 18.507 18.173 17.836 17.496 17.150 16.793 16.535 16.328 16.240 16.335 16.521 16.674 16.791 16.941 17.177 17.515 17.974
   6.50  19.627 19.293 18.959 18.608 18.272 17.933 17.588 17.233 16.947 16.710 16.555 16.565 16.724 16.883 17.000 17.134 17.347 17.655 18.068
   6.75  20.051 19.717 19.383 19.032 18.697 18.359 18.015 17.662 17.355 17.095 16.892 16.813 16.918 17.077 17.198 17.322 17.515 17.798 18.174
   7.00  20.466 20.132 19.798 19.447 19.112 18.775 18.433 18.082 17.715 17.481 17.247 17.087 17.112 17.258 17.385 17.504 17.681 17.943 18.289
   7.25  20.873 20.540 20.206 19.855 19.520 19.183 18.843 18.495 18.131 17.866 17.612 17.392 17.320 17.428 17.561 17.680 17.845 18.089 18.410
   7.50  21.276 20.943 20.609 20.274 19.923 19.587 19.248 18.902 18.543 18.252 17.985 17.727 17.559 17.597 17.728 17.849 18.005 18.234 18.535
   7.75  21.676 21.343 21.009 20.675 20.324 19.988 19.650 19.306 18.951 18.641 18.361 18.084 17.838 17.777 17.886 18.012 18.162 18.378 18.662
   8.00  22.076 21.742 21.409 21.075 20.724 20.389 20.052 19.710 19.358 18.988 18.742 18.457 18.159 17.989 18.042 18.169 18.316 18.521 18.790
   8.25  22.476 22.143 21.809 21.475 21.125 20.790 20.454 20.114 19.766 19.402 19.128 18.840 18.516 18.246 18.205 18.320 18.466 18.662 18.918
   8.50  22.877 22.544 22.210 21.876 21.542 21.193 20.857 20.518 20.173 19.815 19.518 19.228 18.898 18.556 18.395 18.469 18.613 18.802 19.046
   8.75  23.277 22.944 22.610 22.277 21.943 21.594 21.259 20.921 20.579 20.227 19.913 19.618 19.294 18.914 18.632 18.622 18.757 18.940 19.174
   9.00  23.673 23.339 23.006 22.672 22.338 21.992 21.657 21.321 20.981 20.634 20.271 20.006 19.692 19.306 18.929 18.795 18.900 19.077 19.301
   9.25  24.059 23.725 23.392 23.058 22.725 22.380 22.046 21.710 21.373 21.030 20.677 20.387 20.081 19.713 19.285 19.010 19.045 19.213 19.429
   9.50  24.428 24.095 23.761 23.428 23.094 22.761 22.418 22.084 21.748 21.410 21.064 20.757 20.455 20.113 19.684 19.289 19.202 19.348 19.556
   9.75  24.775 24.442 24.109 23.775 23.442 23.108 22.769 22.435 22.100 21.765 21.426 21.109 20.805 20.487 20.096 19.637 19.395 19.484 19.682
   2.00   3.000  3.333  3.667  4.000  4.333  4.667  5.000  5.333  5.667  6.000  6.333  6.667  7.000  7.333  7.667  8.000  8.333  8.667  9.000
  -6.00   2.680  3.409  4.160  4.923  5.694  6.473  7.257  8.045  8.838  9.633 10.431 11.231 12.033 12.834 13.634 14.426 15.207 15.966 16.695
  -5.75   2.728  3.446  4.190  4.949  5.717  6.493  7.275  8.062  8.853  9.647 10.444 11.243 12.044 12.845 13.643 14.436 15.216 15.976 16.708
  -5.50   2.783  3.487  4.223  4.976  5.741  6.514  7.294  8.079  8.868  9.661 10.457 11.255 12.055 12.855 13.654 14.446 15.226 15.985 16.719
  -5.25   2.846  3.532  4.258  5.005  5.766  6.537  7.314  8.097  8.884  9.676 10.471 11.268 12.067 12.866 13.664 14.456 15.235 15.995 16.729
  -5.00   2.920  3.582  4.296  5.037  5.793  6.560  7.334  8.115  8.901  9.691 10.485 11.281 12.079 12.878 13.674 14.466 15.245 16.005 16.739
  -4.75   3.008  3.640  4.338  5.070  5.821  6.584  7.356  8.134  8.918  9.707 10.499 11.294 12.091 12.889 13.685 14.476 15.255 16.014 16.749
  -4.50   3.115  3.706  4.385  5.107  5.851  6.610  7.379  8.155  8.937  9.723 10.514 11.308 12.104 12.901 13.696 14.486 15.265 16.024 16.758
  -4.25   3.245  3.785  4.438  5.147  5.884  6.638  7.402  8.176  8.955  9.740 10.530 11.322 12.117 12.913 13.708 14.497 15.275 16.033 16.768
  -4.00   3.403  3.878  4.498  5.191  5.919  6.667  7.428  8.198  8.975  9.758 10.546 11.337 12.131 12.926 13.719 14.508 15.285 16.043 16.777
  -3.75   3.590  3.991  4.569  5.240  5.956  6.698  7.454  8.221  8.995  9.776 10.562 11.352 12.145 12.938 13.731 14.519 15.295 16.053 16.787
  -3.50   3.802  4.128  4.651  5.295  5.998  6.731  7.482  8.245  9.017  9.795 10.579 11.368 12.159 12.952 13.744 14.530 15.306 16.063 16.797
  -3.25   4.034  4.289  4.751  5.359  6.044  6.767  7.512  8.271  9.039  9.815 10.597 11.384 12.174 12.965 13.756 14.542 15.317 16.074 16.806
  -3.00   4.282  4.475  4.869  5.433  6.095  6.806  7.544  8.298  9.063  9.836 10.616 11.401 12.189 12.979 13.769 14.554 15.329 16.084 16.816
  -2.75   4.546  4.681  5.010  5.521  6.153  6.849  7.578  8.327  9.088  9.858 10.635 11.418 12.205 12.994 13.783 14.567 15.340 16.095 16.827
  -2.50   4.819  4.902  5.173  5.625  6.220  6.897  7.616  8.358  9.114  9.881 10.656 11.436 12.221 13.009 13.796 14.580 15.352 16.106 16.837
  -2.25   5.088  5.136  5.354  5.749  6.299  6.951  7.656  8.391  9.142  9.905 10.677 11.455 12.238 13.024 13.811 14.593 15.364 16.118 16.848
  -2.00   5.338  5.381  5.551  5.892  6.392  7.013  7.701  8.426  9.172  9.931 10.699 11.475 12.256 13.040 13.825 14.606 15.377 16.129 16.859
  -1.75   5.569  5.626  5.761  6.053  6.502  7.084  7.751  8.465  9.203  9.957 10.723 11.496 12.275 13.057 13.841 14.620 15.390 16.142 16.870
  -1.50   5.796  5.861  5.981  6.230  6.630  7.168  7.808  8.507  9.237  9.986 10.747 11.517 12.294 13.075 13.856 14.635 15.403 16.154 16.882
  -1.25   6.029  6.089  6.205  6.419  6.774  7.266  7.874  8.554  9.274 10.016 10.773 11.540 12.314 13.093 13.873 14.650 15.417 16.167 16.893
  -1.00   6.271  6.319  6.428  6.621  6.934  7.381  7.950  8.607  9.314 10.049 10.801 11.564 12.335 13.111 13.890 14.665 15.431 16.180 16.906
  -0.75   6.524  6.558  6.652  6.830  7.109  7.512  8.039  8.667  9.358 10.084 10.830 11.589 12.357 13.131 13.907 14.681 15.446 16.193 16.918
  -0.50   6.790  6.807  6.884  7.044  7.298  7.660  8.143  8.737  9.407 10.121 10.861 11.615 12.380 13.151 13.925 14.698 15.461 16.207 16.931
  -0.25   7.073  7.067  7.126  7.265  7.499  7.824  8.264  8.818  9.463 10.163 10.894 11.643 12.404 13.173 13.944 14.715 15.477 16.222 16.944
   0.00   7.374  7.339  7.379  7.495  7.709  8.006  8.402  8.914  9.527 10.209 10.930 11.673 12.430 13.195 13.964 14.733 15.493 16.237 16.958
   0.25   7.698  7.625  7.644  7.737  7.927  8.204  8.559  9.026  9.602 10.261 10.969 11.705 12.457 13.218 13.985 14.751 15.510 16.252 16.972
   0.50   8.046  7.927  7.920  7.991  8.156  8.414  8.736  9.155  9.690 10.320 11.012 11.739 12.485 13.243 14.007 14.771 15.527 16.268 16.987
   0.75   8.418  8.249  8.209  8.257  8.395  8.634  8.935  9.307  9.795 10.390 11.061 11.776 12.515 13.269 14.029 14.791 15.546 16.285 17.002
   1.00   8.810  8.594  8.511  8.533  8.646  8.862  9.149  9.483  9.918 10.472 11.116 11.817 12.548 13.296 14.053 14.812 15.565 16.302 17.018
   1.25   9.218  8.963  8.830  8.822  8.908  9.100  9.373  9.683 10.065 10.569 11.180 11.862 12.583 13.325 14.078 14.834 15.584 16.320 17.034
   1.50   9.638  9.353  9.170  9.122  9.181  9.346  9.605  9.902 10.239 10.686 11.257 11.914 12.621 13.356 14.105 14.857 15.605 16.338 17.051
   1.75  10.067  9.762  9.533  9.438  9.465  9.602  9.843 10.133 10.441 10.829 11.348 11.973 12.664 13.390 14.133 14.882 15.627 16.358 17.068
   2.00  10.502 10.184  9.918  9.771  9.761  9.867 10.087 10.371 10.665 11.001 11.460 12.044 12.712 13.426 14.162 14.907 15.649 16.378 17.086
   2.25  10.941 10.616 10.324 10.126 10.071 10.144 10.338 10.613 10.903 11.203 11.598 12.131 12.768 13.466 14.194 14.934 15.673 16.399 17.105
   2.50  11.385 11.056 10.745 10.503 10.396 10.431 10.596 10.859 11.148 11.431 11.767 12.237 12.834 13.511 14.228 14.962 15.698 16.421 17.125
   2.75  11.831 11.500 11.179 10.902 10.741 10.731 10.862 11.107 11.397 11.675 11.969 12.370 12.915 13.563 14.266 14.993 15.724 16.444 17.146
   3.00  12.280 11.947 11.620 11.320 11.108 11.046 11.138 11.360 11.646 11.927 12.198 12.536 13.017 13.625 14.308 15.025 15.751 16.469 17.167
   3.25  12.731 12.398 12.067 11.752 11.497 11.379 11.425 11.619 11.897 12.182 12.445 12.735 13.145 13.702 14.357 15.061 15.780 16.494 17.190
   3.50  13.184 12.851 12.518 12.193 11.908 11.732 11.725 11.883 12.149 12.438 12.702 12.963 13.306 13.798 14.415 15.101 15.812 16.521 17.214
   3.75  13.638 13.305 12.971 12.642 12.335 12.109 12.042 12.156 12.402 12.693 12.963 13.211 13.501 13.920 14.487 15.147 15.846 16.549 17.239
   4.00  14.094 13.760 13.426 13.094 12.774 12.508 12.378 12.440 12.659 12.947 13.225 13.470 13.726 14.076 14.577 15.201 15.883 16.580 17.265
   4.25  14.550 14.217 13.883 13.549 13.221 12.927 12.738 12.737 12.921 13.199 13.485 13.734 13.971 14.265 14.694 15.268 15.926 16.613 17.293
   4.50  15.007 14.638 14.303 13.969 13.636 13.323 13.081 13.051 13.188 13.451 13.742 13.999 14.227 14.483 14.842 15.352 15.977 16.649 17.322
   4.75  15.464 15.129 14.764 14.429 14.095 13.770 13.492 13.387 13.465 13.704 13.994 14.262 14.489 14.720 15.023 15.462 16.039 16.689 17.354
   5.00  15.919 15.585 15.224 14.889 14.554 14.222 13.918 13.709 13.754 13.958 14.243 14.519 14.752 14.968 15.229 15.600 16.117 16.736 17.389
   5.25  16.372 16.038 15.680 15.345 15.010 14.675 14.355 14.099 14.060 14.214 14.487 14.770 15.011 15.220 15.452 15.767 16.217 16.793 17.427
   5.50  16.821 16.487 16.132 15.797 15.462 15.126 14.796 14.506 14.386 14.477 14.727 15.013 15.264 15.471 15.683 15.957 16.342 16.864 17.471
   5.75  17.265 16.931 16.578 16.243 15.908 15.571 15.237 14.923 14.696 14.748 14.963 15.246 15.507 15.718 15.915 16.159 16.492 16.953 17.523
   6.00  17.702 17.368 17.034 16.681 16.346 16.009 15.672 15.345 15.073 15.033 15.197 15.469 15.738 15.955 16.143 16.364 16.658 17.063 17.587
   6.25  18.128 17.794 17.460 17.109 16.774 16.437 16.099 15.764 15.460 15.334 15.430 15.681 15.954 16.180 16.365 16.567 16.833 17.190 17.663
   6.50  18.543 18.209 17.875 17.524 17.189 16.853 16.514 16.175 15.851 15.653 15.668 15.883 16.154 16.390 16.576 16.765 17.009 17.330 17.754
   6.75  18.944 18.611 18.277 17.926 17.591 17.255 16.917 16.576 16.240 15.949 15.915 16.077 16.339 16.584 16.776 16.956 17.182 17.477 17.858
   7.00  19.332 18.998 18.664 18.330 17.979 17.644 17.306 16.964 16.622 16.303 16.178 16.268 16.509 16.761 16.962 17.138 17.351 17.626 17.972
   7.25  19.706 19.373 19.039 18.705 18.354 18.019 17.681 17.340 16.996 16.659 16.458 16.465 16.669 16.921 17.134 17.312 17.514 17.773 18.093
   7.50  20.070 19.736 19.403 19.069 18.718 18.382 18.046 17.705 17.360 17.014 16.757 16.676 16.823 17.069 17.293 17.477 17.673 17.918 18.218
   7.75  20.424 20.091 19.757 19.423 19.072 18.737 18.401 18.061 17.716 17.367 17.030 16.909 16.981 17.206 17.439 17.632 17.825 18.061 18.345
   8.00  20.772 20.439 20.105 19.771 19.437 19.085 18.750 18.411 18.067 17.716 17.366 17.167 17.155 17.338 17.574 17.778 17.973 18.201 18.471
   8.25  21.116 20.783 20.449 20.115 19.781 19.430 19.094 18.756 18.414 18.064 17.707 17.450 17.352 17.473 17.701 17.917 18.115 18.337 18.597
   8.50  21.458 21.125 20.791 20.458 20.124 19.772 19.437 19.100 18.758 18.410 18.052 17.755 17.580 17.621 17.824 18.047 18.251 18.471 18.722
   8.75  21.800 21.467 21.133 20.800 20.466 20.114 19.779 19.443 19.103 18.756 18.399 18.034 17.839 17.793 17.948 18.172 18.383 18.601 18.846
   9.00  22.143 21.810 21.476 21.143 20.809 20.475 20.123 19.787 19.448 19.103 18.748 18.380 18.126 17.998 18.081 18.292 18.510 18.729 18.969
   9.25  22.489 22.155 21.822 21.488 21.155 20.821 20.469 20.133 19.795 19.452 19.100 18.733 18.437 18.239 18.236 18.412 18.633 18.855 19.091
   9.50  22.838 22.504 22.171 21.837 21.504 21.170 20.818 20.483 20.146 19.804 19.454 19.090 18.768 18.515 18.423 18.537 18.753 18.977 19.211
   9.75  23.190 22.857 22.524 22.190 21.857 21.523 21.172 20.837 20.500 20.160 19.813 19.452 19.072 18.820 18.650 18.679 18.871 19.097 19.330
   3.00   3.000  3.333  3.667  4.000  4.333  4.667  5.000  5.333  5.667  6.000  6.333  6.667  7.000  7.333  7.667  8.000  8.333  8.667  9.000
  -6.00   2.500  3.232  3.985  4.750  5.523  6.303  7.087  7.876  8.668  9.463 10.261 11.061 11.862 12.663 13.462 14.255 15.035 15.793 16.523
  -5.75   2.549  3.268  4.014  4.775  5.546  6.323  7.105  7.892  8.683  9.477 10.274 11.073 11.873 12.674 13.472 14.264 15.044 15.804 16.535
  -5.50   2.604  3.308  4.046  4.803  5.570  6.344  7.124  7.909  8.699  9.491 10.287 11.085 11.885 12.684 13.482 14.274 15.054 15.813 16.546
  -5.25   2.667  3.353  4.081  4.831  5.594  6.366  7.144  7.927  8.715  9.506 10.301 11.098 11.896 12.695 13.493 14.284 15.064 15.823 16.557
  -5.00   2.741  3.403  4.119  4.862  5.621  6.389  7.165  7.946  8.732  9.522 10.315 11.111 11.909 12.707 13.503 14.294 15.073 15.833 16.567
  -4.75   2.831  3.461  4.160  4.895  5.649  6.414  7.186  7.965  8.749  9.538 10.330 11.124 11.921 12.718 13.514 14.305 15.083 15.842 16.577
  -4.50   2.940  3.527  4.207  4.931  5.678  6.439  7.209  7.985  8.768  9.554 10.345 11.138 11.934 12.730 13.525 14.315 15.093 15.852 16.586
  -4.25   3.074  3.606  4.259  4.970  5.710  6.466  7.233  8.007  8.786  9.571 10.360 11.153 11.947 12.743 13.537 14.326 15.103 15.862 16.596
  -4.00   3.239  3.700  4.319  5.014  5.745  6.495  7.258  8.029  8.806  9.589 10.376 11.167 11.961 12.755 13.549 14.337 15.114 15.872 16.605
  -3.75   3.437  3.816  4.389  5.062  5.782  6.526  7.284  8.052  8.827  9.608 10.393 11.183 11.975 12.768 13.561 14.348 15.124 15.882 16.615
  -3.50   3.664  3.957  4.473  5.117  5.823  6.559  7.312  8.076  8.848  9.627 10.411 11.199 11.989 12.782 13.573 14.360 15.135 15.892 16.625
  -3.25   3.913  4.127  4.573  5.180  5.868  6.594  7.342  8.102  8.871  9.647 10.429 11.215 12.004 12.796 13.586 14.372 15.146 15.902 16.635
  -3.00   4.180  4.324  4.694  5.254  5.919  6.633  7.373  8.129  8.895  9.668 10.448 11.232 12.020 12.810 13.599 14.384 15.158 15.913 16.645
  -2.75   4.465  4.544  4.840  5.342  5.976  6.676  7.408  8.158  8.920  9.690 10.467 11.250 12.036 12.824 13.613 14.396 15.169 15.924 16.655
  -2.50   4.757  4.781  5.011  5.448  6.043  6.723  7.445  8.188  8.946  9.713 10.488 11.268 12.053 12.840 13.627 14.409 15.182 15.935 16.666
  -2.25   5.040  5.034  5.203  5.574  6.122  6.777  7.485  8.221  8.974  9.738 10.509 11.287 12.070 12.855 13.641 14.423 15.194 15.947 16.677
  -2.00   5.299  5.297  5.413  5.722  6.215  6.838  7.530  8.257  9.004  9.763 10.532 11.307 12.088 12.872 13.656 14.436 15.207 15.959 16.688
  -1.75   5.537  5.559  5.637  5.890  6.326  6.909  7.580  8.295  9.035  9.790 10.555 11.328 12.107 12.889 13.671 14.451 15.220 15.971 16.699
  -1.50   5.769  5.806  5.872  6.075  6.456  6.993  7.636  8.338  9.069  9.819 10.580 11.350 12.126 12.906 13.687 14.465 15.233 15.984 16.711
  -1.25   6.006  6.043  6.112  6.274  6.604  7.091  7.701  8.385  9.106  9.850 10.607 11.373 12.147 12.925 13.704 14.480 15.247 15.997 16.723
  -1.00   6.252  6.281  6.350  6.486  6.768  7.207  7.777  8.437  9.147  9.882 10.634 11.397 12.168 12.944 13.721 14.496 15.262 16.010 16.735
  -0.75   6.507  6.527  6.587  6.708  6.947  7.339  7.867  8.498  9.191  9.918 10.664 11.423 12.190 12.963 13.739 14.512 15.277 16.024 16.748
  -0.50   6.775  6.781  6.829  6.936  7.141  7.488  7.971  8.568  9.241  9.956 10.695 11.450 12.214 12.984 13.758 14.529 15.292 16.038 16.761
  -0.25   7.057  7.045  7.081  7.171  7.349  7.652  8.092  8.650  9.297  9.998 10.729 11.478 12.238 13.006 13.777 14.547 15.308 16.052 16.774
   0.00   7.356  7.320  7.343  7.416  7.568  7.834  8.229  8.745  9.362 10.045 10.766 11.509 12.264 13.029 13.797 14.565 15.324 16.068 16.788
   0.25   7.677  7.607  7.614  7.671  7.799  8.033  8.384  8.857  9.438 10.098 10.806 11.541 12.292 13.053 13.818 14.584 15.342 16.083 16.803
   0.50   8.022  7.909  7.894  7.937  8.042  8.246  8.558  8.986  9.527 10.159 10.850 11.576 12.321 13.078 13.841 14.604 15.359 16.099 16.817
   0.75   8.390  8.229  8.186  8.212  8.298  8.473  8.753  9.134  9.631 10.229 10.900 11.614 12.352 13.105 13.864 14.624 15.378 16.116 16.833
   1.00   8.779  8.571  8.490  8.497  8.564  8.712  8.964  9.305  9.754 10.312 10.957 11.656 12.386 13.133 13.888 14.646 15.397 16.134 16.849
   1.25   9.184  8.936  8.809  8.791  8.840  8.963  9.188  9.499  9.898 10.411 11.024 11.704 12.423 13.163 13.914 14.669 15.418 16.152 16.865
   1.50   9.602  9.322  9.147  9.096  9.126  9.226  9.424  9.712 10.068 10.529 11.102 11.757 12.463 13.195 13.941 14.692 15.439 16.171 16.882
   1.75  10.029  9.728  9.506  9.413  9.421  9.499  9.671  9.938 10.263 10.670 11.195 11.819 12.507 13.230 13.970 14.717 15.461 16.191 16.900
   2.00  10.462 10.147  9.887  9.746  9.725  9.782  9.927 10.173 10.479 10.839 11.309 11.893 12.558 13.268 14.001 14.744 15.484 16.211 16.918
   2.25  10.900 10.577 10.289 10.098 10.039 10.074 10.193 10.416 10.709 11.036 11.447 11.982 12.616 13.310 14.035 14.772 15.508 16.233 16.938
   2.50  11.342 11.014 10.707 10.472 10.367 10.374 10.468 10.666 10.947 11.256 11.615 12.092 12.686 13.358 14.071 14.802 15.534 16.256 16.958
   2.75  11.787 11.456 11.138 10.867 10.711 10.685 10.753 10.924 11.190 11.490 11.813 12.227 12.771 13.413 14.111 14.833 15.561 16.280 16.979
   3.00  12.234 11.902 11.576 11.281 11.076 11.007 11.047 11.190 11.438 11.733 12.036 12.393 12.876 13.479 14.156 14.868 15.590 16.305 17.001
   3.25  12.682 12.350 12.021 11.709 11.461 11.343 11.351 11.464 11.690 11.980 12.275 12.590 13.008 13.560 14.209 14.906 15.621 16.331 17.025
   3.50  13.133 12.801 12.469 12.147 11.867 11.696 11.665 11.748 11.947 12.229 12.522 12.815 13.171 13.661 14.271 14.949 15.654 16.359 17.049
   3.75  13.586 13.253 12.920 12.592 12.290 12.070 11.991 12.040 12.211 12.479 12.773 13.056 13.367 13.788 14.348 14.999 15.691 16.389 17.075
   4.00  14.039 13.706 13.372 13.041 12.725 12.466 12.333 12.343 12.481 12.731 13.025 13.306 13.590 13.947 14.444 15.057 15.731 16.421 17.102
   4.25  14.493 14.158 13.826 13.493 13.168 12.879 12.693 12.657 12.759 12.986 13.277 13.561 13.830 14.139 14.566 15.130 15.778 16.456 17.131
   4.50  14.947 14.612 14.244 13.910 13.580 13.271 13.037 12.943 13.046 13.244 13.526 13.815 14.080 14.358 14.719 15.221 15.833 16.495 17.162
   4.75  15.400 15.066 14.701 14.367 14.035 13.714 13.442 13.293 13.342 13.506 13.775 14.068 14.334 14.593 14.904 15.336 15.901 16.539 17.196
   5.00  15.852 15.518 15.157 14.823 14.489 14.161 13.863 13.660 13.649 13.773 14.022 14.316 14.588 14.837 15.113 15.481 15.985 16.591 17.233
   5.25  16.301 15.967 15.633 15.275 14.941 14.609 14.294 14.046 13.939 14.046 14.269 14.558 14.837 15.083 15.337 15.654 16.092 16.653 17.274
   5.50  16.746 16.412 16.078 15.723 15.388 15.054 14.729 14.446 14.281 14.327 14.515 14.795 15.079 15.328 15.567 15.848 16.225 16.730 17.322
   5.75  17.185 16.851 16.517 16.164 15.829 15.494 15.164 14.857 14.638 14.616 14.761 15.024 15.312 15.566 15.796 16.053 16.381 16.826 17.378
   6.00  17.616 17.283 16.949 16.596 16.262 15.927 15.593 15.272 15.009 14.885 15.006 15.246 15.532 15.793 16.020 16.259 16.553 16.942 17.447
   6.25  18.037 17.703 17.370 17.035 16.684 16.349 16.013 15.683 15.389 15.204 15.254 15.460 15.740 16.008 16.235 16.462 16.732 17.076 17.529
   6.50  18.445 18.112 17.778 17.444 17.093 16.758 16.422 16.087 15.772 15.534 15.506 15.666 15.934 16.207 16.439 16.657 16.910 17.222 17.626
   6.75  18.840 18.507 18.173 17.839 17.488 17.153 16.817 16.480 16.152 15.873 15.727 15.867 16.115 16.390 16.629 16.844 17.083 17.373 17.736
   7.00  19.220 18.887 18.553 18.219 17.869 17.534 17.198 16.860 16.525 16.217 16.010 16.068 16.283 16.556 16.804 17.020 17.250 17.524 17.855
   7.25  19.587 19.254 18.920 18.586 18.252 17.901 17.565 17.227 16.888 16.563 16.304 16.275 16.443 16.708 16.964 17.185 17.410 17.672 17.980
   7.50  19.942 19.608 19.275 18.941 18.607 18.256 17.920 17.582 17.242 16.907 16.610 16.495 16.600 16.848 17.110 17.340 17.563 17.815 18.106
   7.75  20.286 19.953 19.620 19.286 18.952 18.601 18.265 17.928 17.588 17.247 16.926 16.693 16.762 16.979 17.244 17.483 17.708 17.955 18.233
   8.00  20.624 20.291 19.957 19.623 19.289 18.938 18.603 18.266 17.927 17.584 17.248 16.967 16.939 17.108 17.368 17.617 17.847 18.089 18.359
   8.25  20.956 20.623 20.290 19.956 19.622 19.288 18.936 18.600 18.261 17.917 17.574 17.259 17.139 17.241 17.486 17.742 17.979 18.220 18.482
   8.50  21.286 20.953 20.619 20.286 19.952 19.618 19.266 18.930 18.592 18.249 17.902 17.567 17.368 17.386 17.600 17.861 18.105 18.347 18.604
   8.75  21.614 21.281 20.947 20.614 20.280 19.946 19.595 19.259 18.921 18.580 18.232 17.885 17.582 17.555 17.717 17.973 18.225 18.470 18.724
   9.00  21.942 21.609 21.276 20.942 20.608 20.275 19.923 19.588 19.251 18.910 18.563 18.211 17.879 17.754 17.843 18.083 18.340 18.589 18.842
   9.25  22.272 21.938 21.605 21.271 20.938 20.604 20.270 19.918 19.581 19.242 18.896 18.543 18.193 17.986 17.988 18.192 18.452 18.705 18.958
   9.50  22.603 22.269 21.936 21.603 21.269 20.935 20.601 20.250 19.914 19.575 19.231 18.878 18.520 18.253 18.163 18.307 18.560 18.818 19.073
   9.75  22.937 22.603 22.270 21.937 21.603 21.269 20.935 20.584 20.248 19.911 19.568 19.217 18.856 18.504 18.372 18.437 18.667 18.928 19.185
   4.00   3.000  3.333  3.667  4.000  4.333  4.667  5.000  5.333  5.667  6.000  6.333  6.667  7.000  7.333  7.667  8.000  8.333  8.667  9.000
  -6.00   2.373  3.104  3.859  4.626  5.401  6.182  6.967  7.755  8.548  9.343 10.140 10.940 11.741 12.542 13.340 14.133 14.913 15.671 16.401
  -5.75   2.421  3.140  3.888  4.651  5.423  6.202  6.985  7.772  8.563  9.357 10.153 10.952 11.752 12.552 13.351 14.143 14.922 15.682 16.413
  -5.50   2.477  3.180  3.920  4.678  5.447  6.223  7.004  7.789  8.579  9.371 10.167 10.964 11.764 12.563 13.361 14.153 14.932 15.691 16.424
  -5.25   2.541  3.225  3.954  4.706  5.471  6.245  7.023  7.807  8.595  9.386 10.181 10.977 11.776 12.575 13.371 14.163 14.942 15.701 16.435
  -5.00   2.616  3.275  3.991  4.736  5.497  6.267  7.044  7.826  8.612  9.402 10.195 10.990 11.788 12.586 13.382 14.173 14.952 15.711 16.445
  -4.75   2.707  3.333  4.033  4.769  5.525  6.291  7.065  7.845  8.629  9.418 10.209 11.004 11.801 12.598 13.393 14.183 14.962 15.720 16.455
  -4.50   2.818  3.400  4.079  4.804  5.554  6.317  7.088  7.865  8.648  9.434 10.225 11.018 11.814 12.610 13.405 14.194 14.972 15.730 16.464
  -4.25   2.956  3.480  4.131  4.843  5.585  6.343  7.111  7.886  8.667  9.452 10.240 11.033 11.827 12.622 13.416 14.205 14.982 15.740 16.474
  -4.00   3.128  3.576  4.191  4.886  5.619  6.372  7.136  7.908  8.686  9.469 10.257 11.047 11.841 12.635 13.428 14.216 14.992 15.750 16.484
  -3.75   3.336  3.694  4.262  4.934  5.655  6.402  7.162  7.931  8.707  9.488 10.274 11.063 11.855 12.648 13.440 14.227 15.003 15.760 16.493
  -3.50   3.574  3.840  4.346  4.989  5.696  6.434  7.190  7.955  8.728  9.507 10.291 11.079 11.869 12.661 13.453 14.239 15.014 15.770 16.503
  -3.25   3.836  4.017  4.448  5.052  5.740  6.469  7.219  7.981  8.751  9.528 10.309 11.095 11.885 12.675 13.466 14.251 15.025 15.781 16.513
  -3.00   4.119  4.225  4.572  5.126  5.791  6.508  7.250  8.008  8.775  9.549 10.328 11.113 11.900 12.690 13.479 14.263 15.037 15.792 16.523
  -2.75   4.419  4.457  4.723  5.215  5.848  6.550  7.284  8.036  8.800  9.571 10.348 11.130 11.916 12.705 13.492 14.276 15.049 15.803 16.534
  -2.50   4.724  4.707  4.902  5.322  5.915  6.596  7.321  8.067  8.826  9.594 10.369 11.149 11.933 12.720 13.507 14.289 15.061 15.814 16.544
  -2.25   5.016  4.975  5.105  5.452  5.994  6.649  7.360  8.099  8.854  9.618 10.390 11.168 11.951 12.736 13.521 14.302 15.073 15.826 16.555
  -2.00   5.280  5.252  5.326  5.605  6.088  6.710  7.405  8.134  8.883  9.644 10.413 11.188 11.969 12.752 13.536 14.316 15.086 15.838 16.567
  -1.75   5.521  5.524  5.563  5.781  6.200  6.781  7.454  8.173  8.915  9.671 10.437 11.209 11.988 12.769 13.552 14.331 15.099 15.850 16.578
  -1.50   5.756  5.778  5.813  5.976  6.333  6.864  7.510  8.214  8.948  9.699 10.461 11.231 12.007 12.787 13.568 14.345 15.113 15.863 16.590
  -1.25   5.995  6.020  6.065  6.186  6.485  6.964  7.575  8.261  8.985  9.730 10.488 11.255 12.028 12.806 13.585 14.361 15.127 15.876 16.602
  -1.00   6.242  6.262  6.311  6.410  6.656  7.080  7.650  8.313  9.025  9.763 10.516 11.279 12.049 12.825 13.602 14.377 15.142 15.889 16.614
  -0.75   6.498  6.511  6.555  6.643  6.843  7.215  7.739  8.373  9.069  9.798 10.545 11.305 12.072 12.845 13.620 14.393 15.157 15.903 16.627
  -0.50   6.766  6.767  6.803  6.882  7.047  7.367  7.844  8.442  9.119  9.836 10.577 11.332 12.096 12.866 13.639 14.410 15.172 15.918 16.640
  -0.25   7.048  7.033  7.059  7.126  7.264  7.536  7.965  8.524  9.175  9.878 10.611 11.360 12.121 12.888 13.659 14.428 15.188 15.932 16.654
   0.00   7.346  7.309  7.324  7.379  7.495  7.723  8.103  8.619  9.239  9.925 10.648 11.391 12.147 12.911 13.679 14.446 15.205 15.948 16.668
   0.25   7.665  7.597  7.598  7.641  7.736  7.928  8.259  8.730  9.314  9.978 10.688 11.424 12.175 12.935 13.700 14.465 15.223 15.964 16.682
   0.50   8.007  7.898  7.881  7.912  7.990  8.150  8.435  8.858  9.403 10.039 10.733 11.459 12.204 12.961 13.723 14.485 15.241 15.980 16.697
   0.75   8.372  8.217  8.174  8.191  8.254  8.387  8.631  9.006  9.507 10.109 10.783 11.498 12.236 12.988 13.746 14.506 15.259 15.997 16.713
   1.00   8.758  8.557  8.478  8.479  8.528  8.638  8.847  9.175  9.628 10.192 10.840 11.540 12.270 13.016 13.771 14.528 15.279 16.015 16.729
   1.25   9.162  8.919  8.797  8.776  8.811  8.901  9.079  9.368  9.770 10.290 10.906 11.588 12.307 13.047 13.797 14.551 15.299 16.033 16.746
   1.50   9.578  9.303  9.133  9.082  9.102  9.174  9.324  9.581  9.937 10.407 10.985 11.642 12.348 13.080 13.825 14.575 15.321 16.052 16.763
   1.75  10.004  9.705  9.490  9.400  9.400  9.456  9.582  9.809 10.129 10.546 11.079 11.705 12.393 13.115 13.855 14.601 15.343 16.072 16.781
   2.00  10.436 10.123  9.868  9.732  9.707  9.747  9.850 10.049 10.342 10.712 11.192 11.780 12.445 13.154 13.886 14.628 15.367 16.093 16.800
   2.25  10.873 10.551 10.267 10.082 10.023 10.045 10.128 10.300 10.570 10.905 11.328 11.870 12.504 13.197 13.920 14.656 15.392 16.115 16.819
   2.50  11.314 10.987 10.683 10.453 10.351 10.350 10.415 10.561 10.808 11.120 11.494 11.979 12.576 13.246 13.958 14.687 15.418 16.138 16.840
   2.75  11.758 11.428 11.111 10.846 10.695 10.664 10.710 10.831 11.054 11.350 11.688 12.114 12.662 13.303 13.999 14.720 15.446 16.163 16.861
   3.00  12.203 11.873 11.548 11.256 11.057 10.988 11.012 11.110 11.308 11.589 11.906 12.279 12.768 13.371 14.046 14.755 15.475 16.188 16.884
   3.25  12.652 12.320 11.991 11.682 11.440 11.324 11.322 11.398 11.569 11.834 12.140 12.474 12.900 13.454 14.100 14.795 15.507 16.215 16.907
   3.50  13.102 12.769 12.438 12.118 11.843 11.677 11.640 11.693 11.837 12.084 12.382 12.694 13.063 13.557 14.164 14.839 15.542 16.244 16.932
   3.75  13.553 13.220 12.888 12.561 12.262 12.048 11.969 11.996 12.113 12.337 12.628 12.930 13.258 13.686 14.243 14.891 15.579 16.275 16.959
   4.00  14.005 13.671 13.339 13.009 12.695 12.440 12.311 12.307 12.398 12.596 12.877 13.175 13.478 13.846 14.342 14.952 15.622 16.308 16.987
   4.25  14.457 14.123 13.791 13.459 13.136 12.851 12.670 12.627 12.689 12.859 13.126 13.423 13.715 14.038 14.467 15.027 15.670 16.345 17.016
   4.50  14.910 14.576 14.207 13.874 13.545 13.240 13.011 12.918 12.989 13.129 13.377 13.672 13.960 14.255 14.622 15.121 15.728 16.385 17.048
   4.75  15.361 15.027 14.663 14.329 13.998 13.680 13.413 13.268 13.257 13.405 13.629 13.919 14.207 14.488 14.808 15.240 15.799 16.431 17.083
   5.00  15.811 15.477 15.143 14.783 14.450 14.124 13.830 13.633 13.579 13.686 13.883 14.164 14.454 14.728 15.018 15.388 15.887 16.485 17.121
   5.25  16.258 15.924 15.590 15.233 14.899 14.569 14.257 14.015 13.909 13.973 14.139 14.405 14.697 14.969 15.241 15.563 15.998 16.550 17.164
   5.50  16.701 16.367 16.033 15.678 15.344 15.012 14.689 14.412 14.251 14.235 14.396 14.642 14.933 15.208 15.469 15.759 16.134 16.631 17.214
   5.75  17.138 16.804 16.470 16.117 15.783 15.449 15.120 14.818 14.605 14.540 14.655 14.875 15.161 15.439 15.695 15.965 16.293 16.731 17.273
   6.00  17.566 17.232 16.899 16.564 16.213 15.878 15.546 15.229 14.972 14.851 14.916 15.103 15.378 15.660 15.915 16.171 16.468 16.851 17.344
   6.25  17.984 17.650 17.317 16.983 16.632 16.297 15.963 15.636 15.348 15.169 15.144 15.326 15.585 15.868 16.125 16.372 16.649 16.988 17.430
   6.50  18.389 18.056 17.722 17.388 17.038 16.703 16.368 16.036 15.726 15.495 15.415 15.544 15.780 16.061 16.322 16.565 16.827 17.137 17.531
   6.75  18.780 18.447 18.113 17.779 17.429 17.095 16.759 16.425 16.101 15.829 15.688 15.758 15.963 16.238 16.504 16.747 17.000 17.290 17.644
   7.00  19.157 18.823 18.490 18.156 17.822 17.471 17.136 16.800 16.469 16.168 15.969 15.972 16.138 16.401 16.672 16.917 17.164 17.441 17.765
   7.25  19.519 19.186 18.852 18.519 18.185 17.834 17.499 17.163 16.827 16.508 16.258 16.157 16.306 16.551 16.824 17.075 17.320 17.588 17.892
   7.50  19.870 19.536 19.203 18.869 18.535 18.184 17.849 17.513 17.176 16.846 16.558 16.394 16.474 16.691 16.963 17.221 17.468 17.730 18.019
   7.75  20.210 19.876 19.543 19.209 18.875 18.525 18.190 17.854 17.516 17.180 16.867 16.645 16.647 16.826 17.092 17.357 17.607 17.865 18.145
   8.00  20.542 20.208 19.875 19.541 19.208 18.873 18.522 18.186 17.849 17.510 17.181 16.912 16.835 16.960 17.212 17.482 17.738 17.996 18.269
   8.25  20.868 20.535 20.202 19.868 19.534 19.200 18.849 18.514 18.176 17.836 17.499 17.196 17.008 17.100 17.328 17.600 17.862 18.121 18.390
   8.50  21.192 20.858 20.525 20.191 19.858 19.524 19.173 18.837 18.500 18.160 17.819 17.495 17.250 17.254 17.442 17.711 17.980 18.242 18.508
   8.75  21.513 21.180 20.846 20.513 20.179 19.845 19.494 19.159 18.823 18.483 18.141 17.803 17.515 17.430 17.561 17.818 18.092 18.358 18.624
   9.00  21.834 21.500 21.167 20.833 20.500 20.166 19.832 19.480 19.144 18.806 18.463 18.119 17.801 17.634 17.691 17.924 18.200 18.471 18.738
   9.25  22.155 21.821 21.488 21.154 20.821 20.487 20.153 19.802 19.466 19.128 18.786 18.440 18.103 17.835 17.840 18.031 18.304 18.580 18.849
   9.50  22.477 22.143 21.810 21.477 21.143 20.809 20.475 20.124 19.789 19.452 19.111 18.764 18.417 18.108 18.016 18.146 18.406 18.686 18.958
   9.75  22.801 22.467 22.134 21.800 21.467 21.133 20.800 20.449 20.114 19.777 19.437 19.091 18.740 18.405 18.226 18.274 18.509 18.789 19.065
   6.00   3.000  3.333  3.667  4.000  4.333  4.667  5.000  5.333  5.667  6.000  6.333  6.667  7.000  7.333  7.667  8.000  8.333  8.667  9.000
  -6.00   2.194  2.923  3.679  4.449  5.227  6.010  6.796  7.586  8.378  9.173  9.970 10.770 11.570 12.371 13.169 13.961 14.741 15.499 16.228
  -5.75   2.244  2.960  3.708  4.473  5.249  6.030  6.814  7.602  8.393  9.187  9.984 10.782 11.582 12.382 13.180 13.971 14.751 15.509 16.241
  -5.50   2.300  3.000  3.739  4.499  5.271  6.050  6.833  7.619  8.409  9.202  9.997 10.795 11.594 12.393 13.190 13.981 14.760 15.519 16.252
  -5.25   2.366  3.045  3.773  4.527  5.295  6.071  6.852  7.637  8.425  9.217 10.011 10.808 11.606 12.404 13.201 13.992 14.770 15.529 16.263
  -5.00   2.443  3.097  3.810  4.556  5.320  6.093  6.872  7.656  8.442  9.232 10.025 10.821 11.618 12.416 13.212 14.002 14.780 15.539 16.273
  -4.75   2.536  3.156  3.851  4.588  5.347  6.117  6.893  7.675  8.460  9.249 10.040 10.835 11.631 12.428 13.223 14.012 14.790 15.549 16.283
  -4.50   2.652  3.224  3.898  4.623  5.375  6.141  6.915  7.695  8.478  9.265 10.056 10.849 11.644 12.440 13.234 14.023 14.800 15.559 16.292
  -4.25   2.797  3.306  3.951  4.661  5.405  6.167  6.938  7.715  8.497  9.282 10.071 10.863 11.657 12.452 13.246 14.034 14.811 15.568 16.302
  -4.00   2.981  3.405  4.013  4.704  5.438  6.195  6.962  7.737  8.517  9.300 10.088 10.878 11.671 12.465 13.258 14.045 14.821 15.579 16.312
  -3.75   3.204  3.529  4.085  4.752  5.474  6.224  6.988  7.760  8.537  9.319 10.105 10.894 11.686 12.478 13.270 14.057 14.832 15.589 16.322
  -3.50   3.460  3.683  4.171  4.808  5.514  6.256  7.015  7.783  8.558  9.338 10.122 10.910 11.700 12.492 13.283 14.069 14.843 15.599 16.332
  -3.25   3.742  3.874  4.277  4.872  5.558  6.290  7.043  7.808  8.581  9.358 10.141 10.927 11.716 12.506 13.296 14.081 14.855 15.610 16.342
  -3.00   4.048  4.098  4.407  4.948  5.609  6.327  7.074  7.835  8.604  9.379 10.160 10.944 11.732 12.521 13.309 14.093 14.866 15.621 16.352
  -2.75   4.368  4.347  4.569  5.039  5.666  6.368  7.106  7.862  8.629  9.401 10.179 10.962 11.748 12.536 13.323 14.106 14.878 15.632 16.363
  -2.50   4.689  4.619  4.762  5.151  5.734  6.414  7.142  7.892  8.654  9.424 10.200 10.981 11.765 12.551 13.337 14.119 14.891 15.644 16.373
  -2.25   4.990  4.908  4.981  5.287  5.814  6.467  7.181  7.924  8.682  9.448 10.222 11.000 11.782 12.567 13.352 14.133 14.903 15.655 16.384
  -2.00   5.259  5.203  5.221  5.452  5.910  6.527  7.224  7.958  8.710  9.474 10.244 11.020 11.801 12.584 13.367 14.147 14.916 15.668 16.396
  -1.75   5.504  5.487  5.478  5.642  6.027  6.599  7.272  7.995  8.741  9.500 10.268 11.041 11.820 12.601 13.383 14.162 14.930 15.680 16.407
  -1.50   5.742  5.749  5.747  5.853  6.167  6.683  7.328  8.036  8.774  9.529 10.293 11.064 11.840 12.619 13.400 14.177 14.944 15.693 16.419
  -1.25   5.983  5.997  6.014  6.082  6.331  6.785  7.392  8.081  8.810  9.559 10.319 11.087 11.860 12.638 13.417 14.192 14.958 15.706 16.431
  -1.00   6.231  6.242  6.270  6.325  6.516  6.906  7.467  8.133  8.849  9.591 10.346 11.111 11.882 12.657 13.434 14.208 14.973 15.720 16.444
  -0.75   6.489  6.494  6.521  6.575  6.719  7.047  7.557  8.191  8.892  9.626 10.376 11.137 11.905 12.678 13.452 14.225 14.988 15.734 16.457
  -0.50   6.757  6.753  6.775  6.827  6.939  7.209  7.663  8.260  8.940  9.663 10.407 11.164 11.928 12.699 13.471 14.242 15.004 15.748 16.470
  -0.25   7.038  7.021  7.036  7.081  7.174  7.391  7.788  8.341  8.995  9.704 10.441 11.192 11.954 12.721 13.491 14.260 15.020 15.763 16.484
   0.00   7.334  7.298  7.305  7.341  7.420  7.592  7.931  8.436  9.059  9.750 10.477 11.223 11.980 12.744 13.512 14.279 15.037 15.779 16.498
   0.25   7.650  7.586  7.582  7.609  7.674  7.812  8.095  8.548  9.133  9.802 10.517 11.256 12.008 12.769 13.534 14.298 15.055 15.795 16.513
   0.50   7.988  7.886  7.867  7.886  7.938  8.050  8.280  8.678  9.220  9.862 10.561 11.291 12.038 12.794 13.556 14.318 15.073 15.812 16.528
   0.75   8.349  8.203  8.161  8.169  8.211  8.303  8.489  8.828  9.323  9.931 10.610 11.329 12.069 12.822 13.580 14.340 15.092 15.829 16.544
   1.00   8.731  8.539  8.465  8.461  8.493  8.567  8.718  9.002  9.444 10.013 10.667 11.371 12.103 12.851 13.605 14.362 15.112 15.847 16.560
   1.25   9.132  8.897  8.783  8.760  8.781  8.842  8.966  9.201  9.586 10.109 10.732 11.419 12.141 12.881 13.632 14.385 15.133 15.866 16.577
   1.50   9.546  9.277  9.116  9.067  9.077  9.125  9.227  9.423  9.752 10.224 10.810 11.473 12.181 12.915 13.660 14.410 15.155 15.885 16.595
   1.75   9.970  9.676  9.469  9.385  9.379  9.415  9.499  9.663  9.945 10.361 10.902 11.536 12.227 12.950 13.690 14.436 15.177 15.906 16.613
   2.00  10.401 10.091  9.844  9.716  9.688  9.713  9.781  9.919 10.161 10.524 11.013 11.610 12.279 12.990 13.722 14.463 15.201 15.927 16.632
   2.25  10.837 10.517 10.239 10.063 10.005 10.016 10.071 10.186 10.395 10.713 11.147 11.699 12.339 13.034 13.757 14.492 15.227 15.949 16.652
   2.50  11.276 10.951 10.651 10.430 10.334 10.326 10.368 10.463 10.644 10.927 11.308 11.807 12.410 13.083 13.795 14.523 15.253 15.973 16.673
   2.75  11.719 11.391 11.077 10.818 10.675 10.642 10.670 10.749 10.903 11.157 11.498 11.939 12.496 13.141 13.837 14.557 15.282 15.998 16.695
   3.00  12.165 11.834 11.512 11.225 11.034 10.967 10.979 11.042 11.173 11.400 11.711 12.100 12.602 13.210 13.885 14.594 15.312 16.024 16.718
   3.25  12.612 12.280 11.953 11.647 11.413 11.303 11.293 11.341 11.451 11.652 11.941 12.291 12.733 13.294 13.941 14.634 15.345 16.051 16.742
   3.50  13.061 12.728 12.398 12.081 11.812 11.654 11.614 11.646 11.737 11.912 12.181 12.505 12.894 13.397 14.007 14.680 15.380 16.081 16.767
   3.75  13.511 13.177 12.846 12.522 12.227 12.022 11.944 11.957 12.029 12.180 12.428 12.735 13.085 13.526 14.087 14.734 15.420 16.113 16.794
   4.00  13.961 13.628 13.296 12.967 12.656 12.409 12.286 12.273 12.328 12.455 12.680 12.975 13.300 13.686 14.188 14.797 15.464 16.147 16.823
   4.25  14.412 14.079 13.746 13.415 13.094 12.815 12.642 12.596 12.632 12.737 12.937 13.218 13.530 13.875 14.314 14.874 15.514 16.185 16.854
   4.50  14.863 14.529 14.195 13.828 13.502 13.201 12.980 12.890 12.901 13.025 13.199 13.465 13.769 14.089 14.470 14.971 15.574 16.227 16.887
   4.75  15.313 14.979 14.645 14.282 13.952 13.637 13.377 13.239 13.220 13.318 13.466 13.713 14.010 14.317 14.656 15.092 15.648 16.275 16.923
   5.00  15.760 15.427 15.093 14.733 14.401 14.077 13.790 13.601 13.545 13.582 13.738 13.962 14.251 14.551 14.864 15.242 15.739 16.331 16.962
   5.25  16.205 15.872 15.538 15.181 14.848 14.519 14.212 13.978 13.875 13.887 14.013 14.211 14.489 14.785 15.084 15.419 15.853 16.399 17.007
   5.50  16.645 16.312 15.978 15.644 15.290 14.959 14.640 14.369 14.215 14.192 14.290 14.460 14.723 15.016 15.307 15.615 15.993 16.483 17.058
   5.75  17.079 16.746 16.412 16.078 15.726 15.393 15.067 14.771 14.566 14.500 14.540 14.709 14.951 15.240 15.528 15.820 16.155 16.587 17.120
   6.00  17.505 17.171 16.838 16.504 16.153 15.819 15.489 15.176 14.928 14.811 14.819 14.955 15.173 15.455 15.740 16.023 16.331 16.711 17.195
   6.25  17.919 17.586 17.252 16.919 16.568 16.234 15.902 15.579 15.298 15.127 15.095 15.197 15.388 15.658 15.943 16.220 16.512 16.851 17.284
   6.50  18.321 17.988 17.654 17.321 16.986 16.637 16.303 15.974 15.670 15.449 15.369 15.407 15.595 15.849 16.131 16.407 16.690 17.003 17.388
   6.75  18.709 18.375 18.042 17.708 17.374 17.024 16.690 16.358 16.040 15.777 15.643 15.644 15.794 16.027 16.306 16.582 16.859 17.156 17.504
   7.00  19.081 18.748 18.415 18.081 17.747 17.397 17.063 16.729 16.402 16.110 15.920 15.876 15.987 16.194 16.466 16.743 17.018 17.306 17.627
   7.25  19.440 19.106 18.773 18.439 18.105 17.756 17.421 17.087 16.755 16.443 16.204 16.107 16.175 16.352 16.613 16.892 17.167 17.450 17.754
   7.50  19.785 19.452 19.119 18.785 18.451 18.117 17.767 17.432 17.098 16.774 16.497 16.343 16.334 16.504 16.749 17.028 17.306 17.586 17.880
   7.75  20.120 19.787 19.454 19.120 18.786 18.452 18.102 17.767 17.432 17.101 16.798 16.588 16.530 16.655 16.878 17.154 17.435 17.716 18.004
   8.00  20.447 20.114 19.781 19.447 19.113 18.779 18.429 18.094 17.759 17.424 17.104 16.848 16.732 16.807 17.002 17.272 17.556 17.839 18.124
   8.25  20.768 20.435 20.101 19.768 19.434 19.101 18.750 18.416 18.080 17.743 17.414 17.124 16.948 16.930 17.126 17.384 17.670 17.956 18.240
   8.50  21.085 20.752 20.418 20.085 19.751 19.418 19.083 18.733 18.397 18.060 17.725 17.412 17.183 17.108 17.253 17.493 17.779 18.067 18.352
   8.75  21.399 21.066 20.733 20.399 20.066 19.732 19.398 19.047 18.712 18.375 18.037 17.710 17.438 17.302 17.387 17.602 17.883 18.174 18.462
   9.00  21.712 21.379 21.046 20.712 20.379 20.045 19.711 19.361 19.025 18.689 18.350 18.015 17.712 17.515 17.533 17.712 17.984 18.278 18.568
   9.25  22.025 21.692 21.358 21.025 20.691 20.358 20.024 19.673 19.339 19.002 18.664 18.325 18.002 17.752 17.660 17.828 18.084 18.378 18.671
   9.50  22.338 22.004 21.671 21.338 21.004 20.671 20.337 20.003 19.652 19.316 18.978 18.638 18.303 18.013 17.855 17.953 18.185 18.476 18.772
   9.75  22.652 22.318 21.985 21.652 21.318 20.985 20.651 20.317 19.966 19.631 19.293 18.952 18.612 18.295 18.075 18.093 18.289 18.573 18.871
   8.00   3.000  3.333  3.667  4.000  4.333  4.667  5.000  5.333  5.667  6.000  6.333  6.667  7.000  7.333  7.667  8.000  8.333  8.667  9.000
  -6.00   2.069  2.795  3.550  4.321  5.102  5.886  6.674  7.464  8.257  9.052  9.850 10.649 11.449 12.250 13.048 13.840 14.619 15.377 16.105
  -5.75   2.120  2.832  3.578  4.345  5.123  5.906  6.692  7.481  8.272  9.066  9.863 10.661 11.461 12.260 13.058 13.850 14.629 15.387 16.118
  -5.50   2.177  2.873  3.610  4.370  5.145  5.926  6.710  7.498  8.288  9.081  9.876 10.674 11.473 12.272 13.069 13.860 14.638 15.397 16.129
  -5.25   2.244  2.920  3.644  4.397  5.168  5.946  6.729  7.516  8.305  9.096  9.890 10.687 11.485 12.283 13.079 13.870 14.648 15.407 16.140
  -5.00   2.323  2.972  3.682  4.427  5.192  5.968  6.749  7.534  8.321  9.112  9.905 10.700 11.497 12.295 13.090 13.880 14.658 15.417 16.150
  -4.75   2.418  3.032  3.724  4.459  5.218  5.991  6.770  7.553  8.339  9.128  9.920 10.714 11.510 12.307 13.101 13.891 14.668 15.427 16.160
  -4.50   2.537  3.102  3.771  4.493  5.246  6.015  6.791  7.572  8.357  9.145  9.935 10.728 11.523 12.319 13.113 13.902 14.679 15.437 16.170
  -4.25   2.689  3.186  3.826  4.532  5.276  6.040  6.814  7.593  8.376  9.162  9.951 10.743 11.537 12.332 13.125 13.913 14.689 15.446 16.180
  -4.00   2.883  3.288  3.889  4.576  5.309  6.067  6.837  7.614  8.395  9.180  9.968 10.758 11.551 12.345 13.137 13.924 14.700 15.457 16.190
  -3.75   3.118  3.416  3.962  4.625  5.344  6.095  6.862  7.636  8.415  9.198  9.985 10.774 11.565 12.358 13.149 13.936 14.711 15.467 16.200
  -3.50   3.387  3.578  4.051  4.681  5.384  6.126  6.888  7.659  8.436  9.217 10.002 10.790 11.580 12.372 13.162 13.948 14.722 15.478 16.210
  -3.25   3.685  3.779  4.160  4.747  5.429  6.160  6.916  7.684  8.458  9.237 10.020 10.807 11.596 12.386 13.175 13.960 14.733 15.488 16.220
  -3.00   4.007  4.015  4.296  4.825  5.480  6.197  6.945  7.709  8.481  9.258 10.039 10.824 11.612 12.401 13.189 13.972 14.745 15.499 16.230
  -2.75   4.341  4.279  4.466  4.919  5.539  6.238  6.977  7.736  8.505  9.280 10.059 10.842 11.628 12.416 13.203 13.985 14.757 15.511 16.241
  -2.50   4.670  4.567  4.671  5.035  5.607  6.284  7.012  7.765  8.530  9.303 10.080 10.861 11.645 12.431 13.217 13.999 14.770 15.522 16.252
  -2.25   4.976  4.871  4.902  5.178  5.690  6.337  7.051  7.796  8.557  9.326 10.101 10.880 11.663 12.447 13.232 14.012 14.782 15.534 16.263
  -2.00   5.248  5.177  5.157  5.352  5.789  6.398  7.093  7.829  8.585  9.351 10.123 10.900 11.681 12.464 13.247 14.027 14.796 15.546 16.274
  -1.75   5.495  5.467  5.430  5.554  5.911  6.471  7.142  7.866  8.615  9.377 10.147 10.921 11.700 12.482 13.263 14.041 14.809 15.559 16.286
  -1.50   5.734  5.734  5.711  5.778  6.059  6.558  7.197  7.906  8.648  9.405 10.171 10.943 11.720 12.500 13.280 14.056 14.823 15.572 16.298
  -1.25   5.976  5.984  5.987  6.020  6.233  6.663  7.262  7.951  8.683  9.435 10.197 10.966 11.741 12.518 13.297 14.072 14.837 15.585 16.310
  -1.00   6.225  6.232  6.249  6.277  6.429  6.789  7.338  8.001  8.721  9.466 10.224 10.991 11.762 12.538 13.315 14.088 14.852 15.599 16.323
  -0.75   6.483  6.485  6.504  6.538  6.645  6.939  7.430  8.060  8.763  9.500 10.253 11.016 11.785 12.558 13.333 14.105 14.868 15.613 16.336
  -0.50   6.751  6.745  6.761  6.797  6.879  7.111  7.539  8.129  8.810  9.536 10.284 11.043 11.809 12.579 13.352 14.122 14.884 15.628 16.350
  -0.25   7.031  7.014  7.024  7.056  7.125  7.303  7.669  8.210  8.864  9.577 10.317 11.071 11.834 12.602 13.372 14.141 14.900 15.643 16.363
   0.00   7.326  7.291  7.295  7.321  7.380  7.517  7.821  8.307  8.927  9.622 10.353 11.101 11.860 12.625 13.393 14.159 14.917 15.659 16.378
   0.25   7.640  7.579  7.573  7.593  7.642  7.750  7.993  8.422  9.001  9.673 10.391 11.133 11.888 12.649 13.415 14.179 14.935 15.675 16.393
   0.50   7.975  7.879  7.859  7.872  7.911  7.998  8.190  8.556  9.088  9.731 10.435 11.168 11.917 12.675 13.438 14.199 14.954 15.692 16.408
   0.75   8.333  8.194  8.153  8.158  8.189  8.259  8.410  8.713  9.192  9.799 10.483 11.206 11.949 12.702 13.462 14.221 14.973 15.709 16.424
   1.00   8.713  8.528  8.458  8.450  8.474  8.531  8.651  8.895  9.315  9.880 10.538 11.247 11.983 12.731 13.487 14.243 14.993 15.727 16.440
   1.25   9.111  8.883  8.774  8.750  8.765  8.811  8.908  9.104  9.460  9.976 10.603 11.294 12.019 12.762 13.513 14.267 15.014 15.746 16.457
   1.50   9.524  9.260  9.106  9.058  9.063  9.099  9.178  9.336  9.631 10.091 10.679 11.347 12.060 12.795 13.542 14.291 15.036 15.766 16.475
   1.75   9.947  9.657  9.456  9.376  9.367  9.394  9.459  9.588  9.830 10.228 10.770 11.409 12.105 12.831 13.572 14.317 15.059 15.787 16.494
   2.00  10.376 10.069  9.828  9.706  9.677  9.694  9.747  9.854 10.054 10.392 10.879 11.482 12.156 12.870 13.604 14.345 15.083 15.808 16.513
   2.25  10.812 10.494 10.220 10.051  9.995 10.000 10.042 10.131 10.298 10.584 11.012 11.569 12.215 12.914 13.639 14.374 15.109 15.831 16.533
   2.50  11.251 10.927 10.630 10.416 10.323 10.312 10.343 10.417 10.557 10.802 11.172 11.676 12.286 12.963 13.677 14.406 15.136 15.855 16.554
   2.75  11.694 11.366 11.054 10.800 10.664 10.630 10.649 10.710 10.828 11.039 11.361 11.806 12.371 13.021 13.719 14.440 15.164 15.880 16.576
   3.00  12.139 11.807 11.487 11.204 11.020 10.955 10.961 11.009 11.109 11.290 11.575 11.965 12.475 13.089 13.767 14.477 15.195 15.906 16.599
   3.25  12.585 12.253 11.927 11.624 11.396 11.291 11.277 11.313 11.397 11.553 11.807 12.152 12.604 13.172 13.822 14.518 15.228 15.934 16.624
   3.50  13.033 12.700 12.371 12.056 11.791 11.640 11.600 11.622 11.691 11.825 12.051 12.365 12.762 13.274 13.889 14.564 15.264 15.964 16.649
   3.75  13.483 13.149 12.818 12.495 12.204 12.005 11.930 11.936 11.991 12.104 12.305 12.594 12.950 13.402 13.969 14.617 15.304 15.996 16.677
   4.00  13.932 13.599 13.266 12.939 12.631 12.390 12.271 12.254 12.295 12.391 12.567 12.834 13.162 13.559 14.070 14.681 15.348 16.031 16.706
   4.25  14.382 14.049 13.715 13.386 13.067 12.792 12.625 12.578 12.604 12.683 12.835 13.080 13.389 13.746 14.195 14.759 15.399 16.069 16.737
   4.50  14.832 14.498 14.165 13.798 13.473 13.175 12.961 12.874 12.878 12.979 13.109 13.331 13.625 13.957 14.350 14.856 15.460 16.112 16.770
   4.75  15.280 14.947 14.613 14.250 13.921 13.608 13.355 13.221 13.199 13.244 13.389 13.586 13.865 14.181 14.534 14.978 15.535 16.160 16.807
   5.00  15.727 15.393 15.060 14.726 14.369 14.047 13.763 13.581 13.525 13.551 13.672 13.845 14.106 14.412 14.739 15.128 15.627 16.218 16.847
   5.25  16.170 15.837 15.503 15.169 14.814 14.487 14.183 13.955 13.855 13.859 13.927 14.106 14.347 14.643 14.956 15.304 15.742 16.287 16.892
   5.50  16.609 16.276 15.942 15.608 15.255 14.924 14.607 14.342 14.194 14.167 14.217 14.368 14.586 14.871 15.176 15.498 15.882 16.372 16.945
   5.75  17.042 16.708 16.375 16.041 15.689 15.357 15.032 14.740 14.542 14.476 14.505 14.629 14.822 15.094 15.393 15.701 16.044 16.477 17.008
   6.00  17.465 17.132 16.798 16.465 16.130 15.781 15.452 15.142 14.900 14.787 14.788 14.862 15.054 15.309 15.601 15.901 16.220 16.602 17.083
   6.25  17.878 17.545 17.211 16.878 16.543 16.194 15.863 15.542 15.266 15.101 15.067 15.119 15.281 15.515 15.800 16.095 16.400 16.743 17.174
   6.50  18.278 17.945 17.611 17.278 16.944 16.594 16.261 15.934 15.634 15.420 15.342 15.369 15.502 15.710 15.986 16.277 16.575 16.894 17.279
   6.75  18.664 18.330 17.997 17.663 17.329 16.980 16.647 16.316 16.000 15.745 15.615 15.610 15.685 15.897 16.158 16.447 16.741 17.047 17.395
   7.00  19.034 18.701 18.367 18.034 17.700 17.351 17.017 16.684 16.360 16.073 15.890 15.845 15.897 16.074 16.318 16.603 16.895 17.195 17.519
   7.25  19.390 19.057 18.723 18.390 18.056 17.722 17.373 17.039 16.709 16.402 16.171 16.077 16.100 16.245 16.468 16.747 17.039 17.335 17.645
   7.50  19.734 19.400 19.067 18.733 18.400 18.066 17.716 17.382 17.049 16.729 16.459 16.311 16.298 16.411 16.610 16.880 17.172 17.467 17.769
   7.75  20.066 19.733 19.399 19.066 18.732 18.398 18.049 17.714 17.380 17.052 16.755 16.554 16.495 16.546 16.747 17.004 17.295 17.591 17.890
   8.00  20.390 20.057 19.723 19.390 19.056 18.723 18.373 18.039 17.704 17.372 17.057 16.809 16.698 16.717 16.882 17.122 17.411 17.708 18.006
   8.25  20.708 20.375 20.041 19.708 19.374 19.041 18.707 18.357 18.022 17.687 17.362 17.079 16.912 16.890 17.019 17.238 17.520 17.819 18.117
   8.50  21.022 20.688 20.355 20.022 19.688 19.354 19.020 18.671 18.336 18.000 17.669 17.362 17.142 17.070 17.160 17.352 17.626 17.925 18.225
   8.75  21.332 20.999 20.666 20.332 19.999 19.665 19.331 18.982 18.647 18.311 17.976 17.655 17.392 17.262 17.277 17.469 17.729 18.027 18.329
   9.00  21.642 21.308 20.975 20.641 20.308 19.974 19.641 19.291 18.956 18.621 18.284 17.954 17.659 17.472 17.440 17.591 17.831 18.126 18.430
   9.25  21.950 21.617 21.283 20.950 20.616 20.283 19.949 19.615 19.265 18.930 18.593 18.258 17.942 17.704 17.616 17.719 17.935 18.223 18.528
   9.50  22.258 21.925 21.592 21.258 20.925 20.591 20.258 19.924 19.574 19.239 18.902 18.565 18.236 17.958 17.809 17.858 18.042 18.319 18.624
   9.75  22.567 22.234 21.900 21.567 21.234 20.900 20.567 20.233 19.883 19.548 19.211 18.873 18.538 18.231 18.024 17.980 18.155 18.415 18.718
  12.00   3.000  3.333  3.667  4.000  4.333  4.667  5.000  5.333  5.667  6.000  6.333  6.667  7.000  7.333  7.667  8.000  8.333  8.667  9.000
  -6.00   1.896  2.617  3.367  4.138  4.921  5.709  6.500  7.292  8.085  8.881  9.678 10.477 11.277 12.077 12.875 13.667 14.445 15.203 15.931
  -5.75   1.947  2.655  3.396  4.162  4.941  5.728  6.517  7.308  8.101  8.895  9.692 10.490 11.289 12.088 12.886 13.677 14.455 15.213 15.944
  -5.50   2.006  2.698  3.429  4.187  4.962  5.747  6.535  7.324  8.116  8.910  9.705 10.503 11.301 12.100 12.896 13.687 14.465 15.223 15.955
  -5.25   2.075  2.746  3.464  4.214  4.985  5.767  6.553  7.342  8.132  8.925  9.719 10.516 11.313 12.111 12.907 13.697 14.475 15.234 15.966
  -5.00   2.156  2.800  3.503  4.244  5.009  5.787  6.572  7.359  8.149  8.940  9.734 10.529 11.326 12.123 12.918 13.708 14.485 15.243 15.976
  -4.75   2.256  2.861  3.547  4.276  5.034  5.809  6.592  7.378  8.166  8.956  9.749 10.543 11.339 12.135 12.930 13.718 14.496 15.253 15.987
  -4.50   2.382  2.934  3.597  4.312  5.062  5.832  6.612  7.397  8.184  8.973  9.764 10.557 11.352 12.148 12.941 13.729 14.506 15.263 15.996
  -4.25   2.546  3.020  3.653  4.353  5.092  5.857  6.634  7.416  8.202  8.990  9.780 10.572 11.366 12.160 12.953 13.741 14.516 15.273 16.006
  -4.00   2.755  3.127  3.718  4.398  5.125  5.883  6.656  7.437  8.221  9.008  9.796 10.587 11.380 12.173 12.965 13.752 14.527 15.284 16.016
  -3.75   3.008  3.264  3.794  4.449  5.162  5.911  6.680  7.458  8.241  9.026  9.813 10.603 11.395 12.187 12.978 13.764 14.538 15.294 16.026
  -3.50   3.298  3.439  3.887  4.507  5.203  5.942  6.705  7.480  8.261  9.045  9.831 10.619 11.410 12.201 12.991 13.776 14.550 15.305 16.036
  -3.25   3.620  3.657  4.002  4.575  5.249  5.975  6.732  7.504  8.282  9.064  9.849 10.636 11.425 12.215 13.004 13.788 14.561 15.316 16.047
  -3.00   3.963  3.912  4.148  4.657  5.302  6.013  6.761  7.528  8.304  9.084  9.868 10.653 11.441 12.230 13.018 13.801 14.573 15.327 16.057
  -2.75   4.311  4.198  4.332  4.755  5.363  6.055  6.792  7.554  8.327  9.105  9.887 10.671 11.457 12.245 13.032 13.814 14.585 15.338 16.068
  -2.50   4.649  4.508  4.554  4.879  5.435  6.103  6.827  7.582  8.352  9.127  9.907 10.690 11.475 12.261 13.046 13.828 14.598 15.350 16.079
  -2.25   4.960  4.830  4.805  5.033  5.521  6.157  6.865  7.612  8.377  9.150  9.928 10.709 11.492 12.277 13.062 13.841 14.611 15.362 16.090
  -2.00   5.235  5.148  5.081  5.223  5.627  6.221  6.909  7.644  8.404  9.174  9.950 10.729 11.511 12.294 13.077 13.856 14.624 15.374 16.102
  -1.75   5.484  5.446  5.375  5.442  5.757  6.297  6.958  7.680  8.433  9.200  9.973 10.750 11.530 12.311 13.093 13.871 14.638 15.387 16.113
  -1.50   5.724  5.716  5.671  5.686  5.918  6.389  7.015  7.720  8.464  9.226  9.996 10.771 11.549 12.329 13.110 13.886 14.652 15.400 16.126
  -1.25   5.968  5.969  5.957  5.949  6.108  6.500  7.082  7.765  8.498  9.254 10.021 10.794 11.570 12.348 13.127 13.902 14.667 15.414 16.138
  -1.00   6.217  6.219  6.225  6.224  6.322  6.637  7.162  7.816  8.535  9.284 10.048 10.817 11.591 12.368 13.145 13.918 14.682 15.428 16.151
  -0.75   6.476  6.474  6.484  6.498  6.557  6.800  7.259  7.876  8.576  9.317 10.075 10.842 11.614 12.388 13.163 13.935 14.697 15.442 16.164
  -0.50   6.743  6.736  6.744  6.765  6.810  6.988  7.377  7.947  8.623  9.352 10.105 10.868 11.637 12.409 13.182 13.952 14.713 15.457 16.178
  -0.25   7.022  7.005  7.010  7.030  7.071  7.198  7.518  8.032  8.677  9.391 10.137 10.896 11.662 12.431 13.202 13.971 14.730 15.472 16.192
   0.00   7.316  7.283  7.283  7.299  7.337  7.430  7.683  8.134  8.741  9.435 10.171 10.925 11.687 12.454 13.223 13.990 14.747 15.488 16.206
   0.25   7.626  7.570  7.562  7.574  7.606  7.679  7.871  8.257  8.816  9.485 10.208 10.956 11.714 12.479 13.245 14.009 14.765 15.504 16.221
   0.50   7.957  7.869  7.849  7.856  7.882  7.941  8.084  8.403  8.907  9.543 10.250 10.989 11.743 12.504 13.268 14.030 14.784 15.521 16.237
   0.75   8.311  8.182  8.144  8.144  8.164  8.212  8.321  8.573  9.016  9.611 10.297 11.026 11.774 12.531 13.292 14.051 14.803 15.539 16.253
   1.00   8.687  8.512  8.448  8.438  8.453  8.491  8.576  8.770  9.146  9.693 10.351 11.066 11.807 12.559 13.317 14.074 14.823 15.557 16.270
   1.25   9.083  8.863  8.763  8.739  8.747  8.778  8.846  8.994  9.301  9.791 10.414 11.111 11.842 12.589 13.343 14.097 14.844 15.576 16.287
   1.50   9.492  9.236  9.092  9.047  9.047  9.071  9.126  9.242  9.484  9.909 10.489 11.162 11.881 12.622 13.371 14.122 14.867 15.596 16.305
   1.75   9.913  9.629  9.439  9.364  9.353  9.370  9.414  9.508  9.698 10.052 10.580 11.222 11.925 12.656 13.401 14.148 14.890 15.617 16.323
   2.00  10.342 10.039  9.806  9.692  9.664  9.674  9.710  9.786  9.937 10.225 10.690 11.293 11.974 12.695 13.432 14.175 14.914 15.639 16.343
   2.25  10.777 10.461 10.194 10.035  9.983  9.982 10.010 10.073 10.196 10.428 10.824 11.378 12.032 12.737 13.467 14.204 14.940 15.662 16.363
   2.50  11.216 10.892 10.600 10.395 10.310 10.296 10.316 10.367 10.469 10.658 10.988 11.483 12.100 12.785 13.504 14.236 14.967 15.685 16.384
   2.75  11.658 11.329 11.021 10.776 10.648 10.615 10.626 10.667 10.752 10.910 11.183 11.612 12.183 12.841 13.545 14.269 14.995 15.711 16.407
   3.00  12.102 11.771 11.452 11.176 11.001 10.940 10.940 10.972 11.043 11.176 11.406 11.771 12.284 12.907 13.592 14.306 15.026 15.737 16.430
   3.25  12.548 12.216 11.891 11.592 11.373 11.275 11.258 11.281 11.340 11.453 11.649 11.960 12.411 12.988 13.647 14.346 15.059 15.765 16.455
   3.50  12.995 12.662 12.333 12.021 11.764 11.621 11.582 11.594 11.642 11.738 11.906 12.176 12.566 13.088 13.711 14.392 15.095 15.795 16.480
   3.75  13.443 13.110 12.779 12.458 12.172 11.983 11.912 11.911 11.949 12.029 12.175 12.411 12.752 13.213 13.790 14.445 15.134 15.827 16.508
   4.00  13.892 13.559 13.226 12.900 12.595 12.363 12.252 12.232 12.259 12.326 12.451 12.660 12.963 13.367 13.889 14.508 15.179 15.862 16.537
   4.25  14.341 14.007 13.674 13.345 13.028 12.761 12.603 12.557 12.571 12.627 12.734 12.918 13.192 13.550 14.012 14.585 15.230 15.901 16.568
   4.50  14.789 14.456 14.122 13.790 13.433 13.140 12.935 12.853 12.850 12.892 13.022 13.183 13.432 13.757 14.163 14.681 15.290 15.943 16.602
   4.75  15.236 14.903 14.569 14.236 13.879 13.570 13.324 13.199 13.174 13.203 13.314 13.453 13.678 13.980 14.344 14.801 15.364 15.992 16.639
   5.00  15.681 15.348 15.014 14.681 14.325 14.005 13.728 13.555 13.500 13.515 13.576 13.728 13.928 14.210 14.545 14.948 15.456 16.049 16.679
   5.25  16.123 15.789 15.456 15.122 14.768 14.442 14.143 13.924 13.830 13.826 13.874 14.004 14.181 14.442 14.759 15.121 15.570 16.119 16.725
   5.50  16.560 16.226 15.893 15.559 15.226 14.877 14.563 14.306 14.166 14.136 14.170 14.253 14.435 14.674 14.976 15.312 15.709 16.204 16.777
   5.75  16.990 16.657 16.323 15.990 15.656 15.307 14.985 14.698 14.510 14.446 14.462 14.531 14.687 14.904 15.190 15.511 15.869 16.309 16.840
   6.00  17.412 17.078 16.745 16.411 16.077 15.729 15.401 15.096 14.863 14.756 14.749 14.803 14.936 15.128 15.398 15.708 16.042 16.433 16.916
   6.25  17.822 17.489 17.155 16.822 16.488 16.140 15.809 15.491 15.223 15.067 15.031 15.067 15.156 15.347 15.597 15.897 16.218 16.573 17.007
   6.50  18.220 17.886 17.553 17.219 16.886 16.552 16.206 15.880 15.586 15.382 15.306 15.322 15.394 15.558 15.787 16.076 16.389 16.721 17.111
   6.75  18.603 18.270 17.936 17.603 17.269 16.935 16.588 16.259 15.948 15.701 15.579 15.567 15.622 15.762 15.966 16.242 16.549 16.870 17.226
   7.00  18.971 18.638 18.304 17.971 17.637 17.303 16.956 16.624 16.303 16.024 15.851 15.804 15.840 15.932 16.137 16.397 16.699 17.014 17.348
   7.25  19.325 18.991 18.658 18.325 17.991 17.657 17.309 16.976 16.649 16.347 16.127 16.037 16.049 16.124 16.300 16.542 16.836 17.149 17.471
   7.50  19.666 19.332 18.999 18.665 18.332 17.998 17.650 17.316 16.986 16.669 16.409 16.270 16.251 16.308 16.458 16.678 16.964 17.274 17.591
   7.75  19.995 19.662 19.329 18.995 18.662 18.328 17.994 17.646 17.313 16.989 16.699 16.509 16.451 16.486 16.613 16.810 17.084 17.392 17.706
   8.00  20.317 19.983 19.650 19.317 18.983 18.649 18.316 17.967 17.634 17.304 16.995 16.759 16.654 16.662 16.741 16.939 17.199 17.502 17.816
   8.25  20.632 20.298 19.965 19.632 19.298 18.964 18.631 18.282 17.948 17.616 17.295 17.022 16.865 16.839 16.899 17.068 17.310 17.608 17.921
   8.50  20.942 20.609 20.275 19.942 19.608 19.275 18.941 18.593 18.258 17.925 17.597 17.298 17.091 17.021 17.057 17.200 17.420 17.710 18.022
   8.75  21.249 20.916 20.582 20.249 19.916 19.582 19.248 18.914 18.566 18.231 17.900 17.584 17.333 17.212 17.217 17.335 17.531 17.809 18.120
   9.00  21.554 21.221 20.888 20.554 20.221 19.887 19.554 19.220 18.871 18.537 18.203 17.878 17.593 17.419 17.384 17.449 17.645 17.908 18.215
   9.25  21.859 21.525 21.192 20.859 20.525 20.192 19.858 19.524 19.176 18.841 18.506 18.175 17.868 17.644 17.560 17.598 17.764 18.007 18.309
   9.50  22.162 21.829 21.496 21.162 20.829 20.495 20.162 19.828 19.479 19.145 18.810 18.476 18.155 17.889 17.751 17.753 17.889 18.109 18.402
   9.75  22.466 22.133 21.799 21.466 21.133 20.799 20.466 20.132 19.798 19.449 19.114 18.779 18.449 18.154 17.961 17.917 18.019 18.215 18.495
  16.00   3.000  3.333  3.667  4.000  4.333  4.667  5.000  5.333  5.667  6.000  6.333  6.667  7.000  7.333  7.667  8.000  8.333  8.667  9.000
  -6.00   1.773  2.492  3.238  4.006  4.790  5.580  6.373  7.167  7.961  8.757  9.555 10.354 11.154 11.954 12.751 13.542 14.321 15.078 15.806
  -5.75   1.826  2.531  3.268  4.030  4.810  5.598  6.390  7.182  7.976  8.772  9.568 10.367 11.166 11.965 12.762 13.553 14.331 15.089 15.819
  -5.50   1.886  2.575  3.302  4.056  4.830  5.616  6.407  7.199  7.992  8.786  9.582 10.379 11.178 11.976 12.773 13.563 14.341 15.099 15.830
  -5.25   1.956  2.623  3.338  4.084  4.853  5.636  6.425  7.216  8.008  8.801  9.596 10.393 11.190 11.988 12.783 13.573 14.351 15.109 15.841
  -5.00   2.040  2.678  3.379  4.115  4.877  5.656  6.443  7.233  8.024  8.817  9.611 10.406 11.203 12.000 12.795 13.584 14.361 15.119 15.851
  -4.75   2.143  2.741  3.424  4.148  4.902  5.677  6.462  7.251  8.041  8.832  9.625 10.420 11.216 12.012 12.806 13.595 14.371 15.129 15.862
  -4.50   2.276  2.815  3.474  4.186  4.931  5.700  6.482  7.269  8.058  8.849  9.641 10.434 11.229 12.024 12.818 13.606 14.382 15.139 15.871
  -4.25   2.450  2.905  3.532  4.227  4.962  5.724  6.503  7.288  8.076  8.866  9.657 10.449 11.243 12.037 12.830 13.617 14.392 15.149 15.881
  -4.00   2.672  3.016  3.598  4.274  4.996  5.750  6.524  7.308  8.094  8.883  9.673 10.464 11.257 12.050 12.842 13.628 14.403 15.159 15.891
  -3.75   2.939  3.161  3.677  4.326  5.034  5.779  6.548  7.328  8.113  8.901  9.689 10.480 11.272 12.064 12.855 13.640 14.414 15.170 15.901
  -3.50   3.245  3.347  3.772  4.386  5.076  5.810  6.572  7.350  8.133  8.919  9.707 10.496 11.287 12.078 12.868 13.652 14.426 15.180 15.912
  -3.25   3.582  3.578  3.893  4.456  5.124  5.845  6.599  7.372  8.154  8.938  9.725 10.513 11.302 12.092 12.881 13.665 14.437 15.191 15.922
  -3.00   3.937  3.847  4.048  4.540  5.179  5.883  6.628  7.396  8.175  8.958  9.743 10.530 11.318 12.107 12.895 13.678 14.449 15.203 15.933
  -2.75   4.294  4.149  4.244  4.643  5.242  5.927  6.660  7.422  8.197  8.978  9.762 10.547 11.335 12.122 12.909 13.691 14.462 15.214 15.943
  -2.50   4.637  4.474  4.479  4.773  5.316  5.976  6.695  7.449  8.221  9.000  9.782 10.566 11.352 12.138 12.924 13.704 14.474 15.226 15.954
  -2.25   4.951  4.807  4.745  4.937  5.405  6.033  6.734  7.478  8.245  9.022  9.802 10.585 11.369 12.154 12.939 13.718 14.487 15.238 15.966
  -2.00   5.227  5.132  5.037  5.138  5.516  6.100  6.779  7.511  8.272  9.045  9.823 10.604 11.387 12.171 12.954 13.733 14.501 15.251 15.977
  -1.75   5.477  5.433  5.343  5.371  5.654  6.178  6.830  7.547  8.300  9.069  9.846 10.625 11.406 12.189 12.970 13.748 14.515 15.263 15.989
  -1.50   5.718  5.706  5.649  5.630  5.825  6.274  6.890  7.587  8.330  9.095  9.869 10.646 11.426 12.207 12.987 13.763 14.529 15.277 16.001
  -1.25   5.961  5.960  5.940  5.908  6.027  6.391  6.960  7.633  8.364  9.122  9.893 10.668 11.446 12.225 13.004 13.779 14.543 15.290 16.014
  -1.00   6.211  6.211  6.211  6.194  6.255  6.536  7.043  7.687  8.401  9.151  9.918 10.691 11.467 12.245 13.022 13.795 14.558 15.304 16.027
  -0.75   6.470  6.467  6.472  6.474  6.505  6.710  7.145  7.749  8.442  9.183  9.945 10.715 11.489 12.265 13.040 13.812 14.574 15.319 16.040
  -0.50   6.737  6.729  6.734  6.746  6.770  6.910  7.269  7.823  8.490  9.218  9.973 10.740 11.512 12.286 13.059 13.830 14.590 15.333 16.054
  -0.25   7.015  6.999  7.001  7.014  7.040  7.134  7.419  7.912  8.546  9.256 10.004 10.767 11.536 12.307 13.079 13.848 14.607 15.349 16.068
   0.00   7.307  7.276  7.274  7.286  7.312  7.379  7.595  8.020  8.611  9.300 10.037 10.795 11.561 12.330 13.100 13.867 14.624 15.365 16.083
   0.25   7.616  7.563  7.555  7.562  7.586  7.639  7.795  8.150  8.690  9.350 10.074 10.825 11.587 12.354 13.122 13.886 14.642 15.381 16.098
   0.50   7.944  7.861  7.842  7.846  7.864  7.908  8.021  8.305  8.785  9.409 10.114 10.857 11.615 12.379 13.144 13.907 14.661 15.398 16.113
   0.75   8.295  8.173  8.137  8.135  8.149  8.185  8.269  8.486  8.900  9.479 10.161 10.893 11.645 12.405 13.168 13.928 14.680 15.416 16.130
   1.00   8.668  8.501  8.440  8.430  8.440  8.468  8.534  8.695  9.038  9.564 10.215 10.931 11.677 12.433 13.192 13.951 14.701 15.434 16.146
   1.25   9.060  8.849  8.754  8.731  8.736  8.759  8.811  8.931  9.203  9.666 10.278 10.975 11.711 12.462 13.218 13.974 14.722 15.453 16.164
   1.50   9.469  9.218  9.081  9.039  9.037  9.054  9.096  9.189  9.397  9.791 10.355 11.025 11.749 12.493 13.246 13.998 14.744 15.473 16.182
   1.75   9.889  9.609  9.426  9.355  9.343  9.355  9.389  9.462  9.621  9.942 10.448 11.084 11.791 12.527 13.275 14.024 14.767 15.494 16.200
   2.00  10.317 10.016  9.790  9.682  9.655  9.661  9.688  9.747  9.870 10.123 10.561 11.155 11.839 12.564 13.306 14.051 14.791 15.516 16.220
   2.25  10.751 10.436 10.175 10.023  9.973  9.971  9.991 10.039 10.138 10.337 10.701 11.241 11.895 12.605 13.339 14.080 14.816 15.539 16.240
   2.50  11.189 10.866 10.578 10.381 10.300 10.285 10.299 10.338 10.419 10.577 10.872 11.347 11.962 12.652 13.376 14.111 14.843 15.562 16.261
   2.75  11.631 11.303 10.997 10.758 10.637 10.604 10.611 10.642 10.709 10.838 11.076 11.479 12.043 12.706 13.416 14.144 14.871 15.587 16.284
   3.00  12.074 11.744 11.427 11.155 10.988 10.930 10.926 10.950 11.006 11.113 11.308 11.641 12.145 12.771 13.462 14.179 14.902 15.614 16.307
   3.25  12.520 12.188 11.863 11.568 11.356 11.263 11.246 11.262 11.308 11.398 11.561 11.836 12.271 12.850 13.515 14.219 14.934 15.642 16.332
   3.50  12.967 12.634 12.305 11.995 11.744 11.608 11.570 11.577 11.614 11.690 11.828 12.060 12.427 12.948 13.578 14.264 14.969 15.672 16.357
   3.75  13.414 13.081 12.750 12.430 12.149 11.967 11.900 11.895 11.924 11.987 12.105 12.304 12.616 13.071 13.655 14.315 15.008 15.703 16.385
   4.00  13.862 13.529 13.197 12.871 12.569 12.343 12.238 12.217 12.236 12.289 12.390 12.562 12.831 13.224 13.751 14.377 15.052 15.738 16.414
   4.25  14.310 13.977 13.644 13.314 13.000 12.738 12.587 12.542 12.551 12.592 12.680 12.830 13.066 13.407 13.871 14.452 15.102 15.776 16.445
   4.50  14.758 14.424 14.091 13.759 13.403 13.114 12.917 12.839 12.833 12.864 12.974 13.105 13.314 13.616 14.021 14.546 15.161 15.818 16.478
   4.75  15.204 14.870 14.537 14.204 13.848 13.541 13.302 13.182 13.157 13.178 13.236 13.384 13.569 13.841 14.199 14.663 15.234 15.866 16.514
   5.00  15.648 15.314 14.981 14.648 14.293 13.974 13.702 13.536 13.483 13.492 13.540 13.666 13.829 14.075 14.400 14.808 15.324 15.922 16.554
   5.25  16.088 15.755 15.421 15.088 14.756 14.410 14.113 13.901 13.812 13.804 13.841 13.921 14.092 14.314 14.614 14.979 15.436 15.991 16.599
   5.50  16.524 16.190 15.857 15.523 15.190 14.843 14.531 14.280 14.146 14.115 14.140 14.207 14.356 14.554 14.832 15.168 15.573 16.075 16.652
   5.75  16.952 16.619 16.286 15.952 15.619 15.271 14.950 14.668 14.487 14.425 14.435 14.489 14.618 14.793 15.049 15.365 15.730 16.177 16.714
   6.00  17.372 17.039 16.706 16.372 16.039 15.691 15.364 15.062 14.836 14.733 14.723 14.765 14.853 15.029 15.262 15.561 15.901 16.300 16.788
   6.25  17.782 17.448 17.115 16.781 16.448 16.114 15.770 15.455 15.192 15.042 15.005 15.032 15.106 15.258 15.468 15.751 16.075 16.437 16.877
   6.50  18.178 17.844 17.511 17.177 16.844 16.510 16.165 15.841 15.551 15.354 15.281 15.290 15.349 15.457 15.667 15.931 16.243 16.583 16.980
   6.75  18.559 18.226 17.892 17.559 17.225 16.892 16.546 16.218 15.909 15.669 15.552 15.538 15.581 15.673 15.856 16.100 16.402 16.729 17.093
   7.00  18.926 18.593 18.259 17.926 17.592 17.259 16.912 16.581 16.262 15.988 15.822 15.776 15.803 15.879 16.038 16.260 16.549 16.869 17.212
   7.25  19.278 18.945 18.611 18.278 17.945 17.611 17.277 16.932 16.606 16.308 16.095 16.009 16.015 16.076 16.213 16.412 16.687 17.001 17.332
   7.50  19.618 19.284 18.951 18.617 18.284 17.950 17.616 17.270 16.940 16.627 16.374 16.241 16.219 16.264 16.360 16.558 16.816 17.123 17.448
   7.75  19.946 19.613 19.279 18.946 18.612 18.279 17.945 17.598 17.266 16.944 16.660 16.477 16.420 16.447 16.527 16.700 16.939 17.238 17.559
   8.00  20.266 19.932 19.599 19.266 18.932 18.599 18.265 17.918 17.585 17.257 16.952 16.723 16.623 16.626 16.691 16.841 17.059 17.348 17.665
   8.25  20.579 20.246 19.912 19.579 19.246 18.912 18.578 18.244 17.898 17.566 17.248 16.982 16.833 16.805 16.852 16.982 17.178 17.453 17.767
   8.50  20.888 20.554 20.221 19.888 19.554 19.221 18.887 18.553 18.206 17.873 17.547 17.254 17.055 16.987 17.014 17.103 17.298 17.557 17.865
   8.75  21.193 20.860 20.526 20.193 19.860 19.526 19.193 18.859 18.511 18.178 17.848 17.536 17.293 17.178 17.178 17.250 17.420 17.660 17.961
   9.00  21.496 21.163 20.830 20.496 20.163 19.830 19.496 19.162 18.815 18.481 18.148 17.826 17.549 17.382 17.346 17.399 17.547 17.765 18.056
   9.25  21.798 21.465 21.132 20.798 20.465 20.132 19.798 19.464 19.130 18.783 18.449 18.121 17.819 17.603 17.523 17.552 17.651 17.873 18.150
   9.50  22.100 21.766 21.433 21.100 20.766 20.433 20.099 19.766 19.432 19.084 18.750 18.418 18.101 17.844 17.713 17.709 17.791 17.986 18.246
   9.75  22.401 22.068 21.734 21.401 21.068 20.734 20.401 20.067 19.733 19.386 19.051 18.717 18.391 18.103 17.919 17.875 17.934 18.103 18.344
  20.00   3.000  3.333  3.667  4.000  4.333  4.667  5.000  5.333  5.667  6.000  6.333  6.667  7.000  7.333  7.667  8.000  8.333  8.667  9.000
  -6.00   1.678  2.395  3.138  3.903  4.686  5.478  6.272  7.067  7.863  8.660  9.458 10.257 11.057 11.856 12.654 13.444 14.222 14.979 15.707
  -5.75   1.731  2.435  3.170  3.928  4.706  5.495  6.288  7.083  7.878  8.674  9.471 10.269 11.069 11.868 12.664 13.455 14.233 14.990 15.720
  -5.50   1.792  2.479  3.204  3.954  4.727  5.513  6.305  7.099  7.893  8.688  9.485 10.282 11.081 11.879 12.675 13.465 14.243 15.000 15.731
  -5.25   1.864  2.528  3.241  3.983  4.749  5.532  6.322  7.115  7.909  8.703  9.499 10.295 11.093 11.891 12.686 13.475 14.253 15.010 15.742
  -5.00   1.950  2.584  3.282  4.015  4.773  5.552  6.340  7.132  7.925  8.719  9.513 10.309 11.106 11.902 12.697 13.486 14.263 15.020 15.753
  -4.75   2.057  2.648  3.328  4.050  4.800  5.573  6.359  7.149  7.941  8.734  9.528 10.323 11.119 11.915 12.709 13.497 14.273 15.030 15.763
  -4.50   2.196  2.724  3.379  4.088  4.829  5.596  6.378  7.167  7.958  8.750  9.543 10.337 11.132 11.927 12.720 13.508 14.284 15.040 15.773
  -4.25   2.379  2.816  3.437  4.130  4.861  5.620  6.398  7.186  7.976  8.767  9.559 10.352 11.146 11.940 12.732 13.519 14.294 15.051 15.783
  -4.00   2.611  2.932  3.505  4.178  4.896  5.647  6.420  7.205  7.994  8.784  9.575 10.367 11.160 11.953 12.745 13.531 14.305 15.061 15.793
  -3.75   2.889  3.083  3.586  4.231  4.936  5.676  6.443  7.225  8.012  8.801  9.591 10.382 11.175 11.967 12.758 13.543 14.317 15.072 15.803
  -3.50   3.208  3.279  3.685  4.292  4.979  5.708  6.468  7.246  8.031  8.819  9.608 10.398 11.190 11.981 12.771 13.555 14.328 15.082 15.813
  -3.25   3.557  3.521  3.811  4.364  5.028  5.744  6.495  7.268  8.051  8.838  9.626 10.415 11.205 11.995 12.784 13.567 14.340 15.093 15.824
  -3.00   3.920  3.802  3.974  4.450  5.084  5.784  6.524  7.291  8.072  8.857  9.644 10.432 11.221 12.010 12.798 13.580 14.352 15.105 15.834
  -2.75   4.282  4.116  4.180  4.557  5.148  5.829  6.557  7.317  8.094  8.877  9.663 10.449 11.237 12.025 12.812 13.594 14.364 15.116 15.845
  -2.50   4.628  4.451  4.425  4.693  5.225  5.880  6.593  7.344  8.116  8.898  9.682 10.467 11.254 12.041 12.827 13.607 14.377 15.128 15.856
  -2.25   4.943  4.791  4.704  4.866  5.317  5.938  6.634  7.374  8.140  8.919  9.702 10.486 11.272 12.057 12.842 13.621 14.390 15.140 15.867
  -2.00   5.220  5.120  5.007  5.077  5.431  6.006  6.680  7.407  8.166  8.942  9.722 10.505 11.290 12.074 12.857 13.636 14.403 15.153 15.879
  -1.75   5.470  5.423  5.322  5.321  5.576  6.087  6.733  7.444  8.194  8.965  9.744 10.525 11.308 12.091 12.873 13.650 14.417 15.166 15.891
  -1.50   5.711  5.697  5.633  5.592  5.756  6.186  6.794  7.486  8.225  8.990  9.766 10.546 11.327 12.109 12.890 13.666 14.431 15.179 15.903
  -1.25   5.955  5.952  5.927  5.880  5.968  6.309  6.866  7.533  8.258  9.017  9.790 10.568 11.347 12.128 12.907 13.682 14.446 15.192 15.916
  -1.00   6.206  6.204  6.201  6.173  6.207  6.461  6.953  7.588  8.296  9.046  9.814 10.590 11.368 12.147 12.925 13.698 14.461 15.206 15.929
  -0.75   6.464  6.460  6.463  6.458  6.468  6.644  7.058  7.652  8.339  9.077  9.841 10.613 11.390 12.167 12.943 13.715 14.477 15.221 15.942
  -0.50   6.731  6.723  6.726  6.733  6.742  6.854  7.188  7.729  8.388  9.112  9.868 10.638 11.412 12.187 12.962 13.733 14.493 15.236 15.956
  -0.25   7.009  6.992  6.993  7.003  7.019  7.089  7.346  7.821  8.446  9.151  9.898 10.664 11.435 12.209 12.982 13.751 14.510 15.251 15.970
   0.00   7.299  7.270  7.267  7.275  7.294  7.343  7.531  7.934  8.514  9.195  9.931 10.691 11.460 12.231 13.002 13.769 14.527 15.267 15.985
   0.25   7.606  7.557  7.548  7.553  7.571  7.611  7.742  8.071  8.596  9.247  9.967 10.720 11.485 12.254 13.024 13.789 14.545 15.284 16.000
   0.50   7.933  7.854  7.835  7.837  7.852  7.885  7.977  8.234  8.695  9.307 10.008 10.752 11.513 12.279 13.046 13.809 14.564 15.301 16.016
   0.75   8.280  8.164  8.130  8.127  8.138  8.166  8.234  8.424  8.815  9.380 10.054 10.786 11.541 12.304 13.069 13.831 14.583 15.318 16.032
   1.00   8.651  8.490  8.433  8.422  8.430  8.452  8.505  8.642  8.960  9.468 10.109 10.824 11.572 12.331 13.093 13.853 14.603 15.337 16.049
   1.25   9.042  8.836  8.746  8.724  8.727  8.744  8.786  8.886  9.132  9.575 10.174 10.868 11.605 12.360 13.119 13.876 14.624 15.356 16.066
   1.50   9.450  9.203  9.072  9.032  9.028  9.042  9.075  9.152  9.335  9.705 10.253 10.918 11.642 12.390 13.146 13.900 14.646 15.376 16.084
   1.75   9.869  9.591  9.414  9.348  9.335  9.344  9.371  9.431  9.567  9.863 10.349 10.977 11.683 12.423 13.174 13.925 14.669 15.396 16.103
   2.00  10.296  9.996  9.776  9.673  9.647  9.651  9.672  9.720  9.825 10.052 10.468 11.049 11.731 12.459 13.204 13.952 14.693 15.418 16.122
   2.25  10.730 10.416 10.159 10.012  9.965  9.961  9.977 10.016 10.099 10.274 10.613 11.137 11.786 12.499 13.237 13.980 14.718 15.441 16.142
   2.50  11.168 10.845 10.560 10.368 10.291 10.276 10.287 10.318 10.385 10.522 10.791 11.246 11.853 12.545 13.272 14.010 14.744 15.464 16.164
   2.75  11.608 11.281 10.977 10.743 10.626 10.595 10.599 10.624 10.679 10.790 11.002 11.381 11.935 12.598 13.311 14.042 14.772 15.489 16.186
   3.00  12.052 11.722 11.405 11.137 10.976 10.920 10.916 10.934 10.980 11.070 11.242 11.549 12.037 12.661 13.356 14.077 14.802 15.515 16.209
   3.25  12.497 12.165 11.841 11.549 11.342 11.253 11.235 11.248 11.285 11.360 11.502 11.751 12.165 12.739 13.407 14.116 14.834 15.543 16.233
   3.50  12.943 12.611 12.282 11.973 11.727 11.596 11.559 11.564 11.593 11.656 11.775 11.982 12.325 12.837 13.469 14.159 14.868 15.572 16.259
   3.75  13.390 13.057 12.727 12.408 12.130 11.953 11.889 11.883 11.905 11.958 12.058 12.233 12.518 12.960 13.544 14.210 14.906 15.604 16.286
   4.00  13.838 13.504 13.172 12.846 12.548 12.327 12.226 12.205 12.219 12.262 12.348 12.498 12.739 13.114 13.639 14.270 14.949 15.638 16.315
   4.25  14.285 13.952 13.619 13.290 12.977 12.719 12.573 12.530 12.535 12.564 12.642 12.772 12.981 13.299 13.759 14.343 14.998 15.675 16.345
   4.50  14.732 14.398 14.065 13.734 13.379 13.093 12.901 12.826 12.819 12.844 12.940 13.053 13.235 13.511 13.908 14.435 15.056 15.716 16.378
   4.75  15.177 14.843 14.510 14.178 13.823 13.518 13.283 13.169 13.143 13.159 13.208 13.337 13.498 13.742 14.086 14.551 15.127 15.763 16.414
   5.00  15.620 15.286 14.953 14.620 14.290 13.949 13.680 13.520 13.468 13.474 13.513 13.624 13.765 13.982 14.288 14.694 15.215 15.818 16.453
   5.25  16.059 15.726 15.392 15.059 14.727 14.382 14.089 13.882 13.796 13.787 13.817 13.884 14.035 14.228 14.504 14.864 15.325 15.885 16.497
   5.50  16.494 16.160 15.827 15.493 15.161 14.814 14.504 14.257 14.129 14.098 14.117 14.174 14.304 14.476 14.726 15.053 15.460 15.967 16.548
   5.75  16.921 16.588 16.254 15.921 15.588 15.241 14.921 14.643 14.467 14.407 14.413 14.458 14.548 14.722 14.949 15.250 15.615 16.068 16.609
   6.00  17.340 17.007 16.673 16.340 16.006 15.674 15.334 15.034 14.813 14.714 14.702 14.736 14.812 14.965 15.168 15.448 15.785 16.188 16.683
   6.25  17.748 17.414 17.081 16.748 16.414 16.081 15.738 15.424 15.165 15.022 14.985 15.006 15.068 15.179 15.382 15.640 15.957 16.324 16.770
   6.50  18.143 17.809 17.476 17.143 16.809 16.476 16.131 15.809 15.522 15.330 15.260 15.265 15.315 15.410 15.588 15.824 16.125 16.468 16.870
   6.75  18.523 18.190 17.856 17.523 17.190 16.856 16.511 16.183 15.878 15.643 15.530 15.514 15.550 15.630 15.786 16.000 16.285 16.612 16.982
   7.00  18.889 18.555 18.222 17.889 17.555 17.222 16.888 16.546 16.228 15.958 15.798 15.753 15.774 15.839 15.954 16.166 16.434 16.750 17.098
   7.25  19.240 18.907 18.573 18.240 17.906 17.573 17.239 16.895 16.570 16.275 16.068 15.985 15.988 16.039 16.138 16.326 16.575 16.880 17.215
   7.50  19.578 19.245 18.912 18.578 18.245 17.911 17.578 17.233 16.903 16.592 16.344 16.216 16.193 16.231 16.315 16.480 16.708 17.003 17.329
   7.75  19.906 19.573 19.239 18.906 18.572 18.239 17.905 17.560 17.228 16.907 16.627 16.450 16.395 16.416 16.485 16.631 16.837 17.118 17.438
   8.00  20.225 19.891 19.558 19.225 18.891 18.558 18.224 17.890 17.546 17.218 16.917 16.694 16.598 16.597 16.652 16.758 16.964 17.229 17.542
   8.25  20.537 20.204 19.870 19.537 19.204 18.870 18.537 18.203 17.857 17.527 17.211 16.950 16.806 16.777 16.817 16.908 17.091 17.338 17.643
   8.50  20.845 20.511 20.178 19.845 19.511 19.178 18.844 18.510 18.164 17.832 17.508 17.219 17.026 16.960 16.981 17.058 17.220 17.447 17.741
   8.75  21.149 20.816 20.482 20.149 19.816 19.482 19.149 18.815 18.469 18.136 17.807 17.498 17.261 17.150 17.147 17.209 17.351 17.557 17.838
   9.00  21.451 21.118 20.784 20.451 20.118 19.784 19.451 19.117 18.783 18.437 18.106 17.786 17.513 17.352 17.316 17.361 17.464 17.670 17.935
   9.25  21.752 21.419 21.085 20.752 20.418 20.085 19.752 19.418 19.084 18.738 18.405 18.078 17.780 17.571 17.494 17.516 17.604 17.786 18.033
   9.50  22.052 21.718 21.385 21.052 20.718 20.385 20.052 19.718 19.384 19.038 18.704 18.373 18.059 17.808 17.682 17.676 17.746 17.907 18.134
   9.75  22.351 22.018 21.685 21.351 21.018 20.685 20.351 20.018 19.684 19.337 19.003 18.671 18.347 18.063 17.886 17.842 17.892 18.033 18.239
  26.00   3.000  3.333  3.667  4.000  4.333  4.667  5.000  5.333  5.667  6.000  6.333  6.667  7.000  7.333  7.667  8.000  8.333  8.667  9.000
  -6.00   1.557  2.274  3.016  3.778  4.559  5.351  6.148  6.945  7.743  8.540  9.339 10.138 10.938 11.738 12.534 13.325 14.103 14.859 15.586
  -5.75   1.611  2.314  3.048  3.803  4.578  5.368  6.163  6.960  7.757  8.554  9.352 10.151 10.950 11.749 12.545 13.335 14.113 14.870 15.599
  -5.50   1.672  2.358  3.083  3.831  4.600  5.385  6.179  6.976  7.772  8.568  9.365 10.163 10.962 11.760 12.556 13.346 14.123 14.880 15.611
  -5.25   1.744  2.408  3.120  3.861  4.623  5.404  6.196  6.991  7.787  8.583  9.379 10.177 10.974 11.772 12.567 13.356 14.133 14.890 15.622
  -5.00   1.831  2.464  3.162  3.893  4.648  5.424  6.213  7.007  7.803  8.598  9.394 10.190 10.987 11.784 12.578 13.367 14.143 14.900 15.632
  -4.75   1.941  2.528  3.207  3.928  4.675  5.445  6.231  7.024  7.818  8.613  9.408 10.204 11.000 11.796 12.590 13.378 14.154 14.910 15.642
  -4.50   2.083  2.605  3.259  3.967  4.705  5.468  6.250  7.041  7.835  8.629  9.423 10.218 11.013 11.808 12.601 13.389 14.164 14.920 15.652
  -4.25   2.271  2.698  3.318  4.010  4.738  5.493  6.270  7.059  7.852  8.645  9.438 10.232 11.027 11.821 12.613 13.400 14.175 14.931 15.662
  -4.00   2.510  2.817  3.386  4.057  4.774  5.521  6.292  7.077  7.869  8.661  9.454 10.247 11.041 11.834 12.626 13.412 14.186 14.941 15.672
  -3.75   2.796  2.972  3.467  4.111  4.814  5.551  6.315  7.097  7.887  8.678  9.470 10.263 11.055 11.848 12.639 13.424 14.197 14.952 15.683
  -3.50   3.125  3.174  3.568  4.173  4.858  5.584  6.340  7.117  7.905  8.696  9.487 10.278 11.070 11.862 12.652 13.436 14.208 14.962 15.693
  -3.25   3.483  3.422  3.697  4.245  4.908  5.621  6.367  7.139  7.924  8.713  9.504 10.294 11.085 11.876 12.665 13.448 14.220 14.973 15.703
  -3.00   3.854  3.713  3.865  4.332  4.964  5.662  6.398  7.162  7.944  8.732  9.521 10.311 11.101 11.891 12.679 13.461 14.232 14.985 15.714
  -2.75   4.222  4.038  4.077  4.441  5.029  5.708  6.432  7.188  7.965  8.751  9.539 10.328 11.117 11.906 12.693 13.474 14.245 14.996 15.725
  -2.50   4.574  4.382  4.331  4.580  5.106  5.759  6.469  7.215  7.987  8.771  9.558 10.346 11.134 11.922 12.707 13.488 14.257 15.008 15.736
  -2.25   4.895  4.729  4.620  4.759  5.199  5.818  6.511  7.246  8.011  8.791  9.577 10.364 11.151 11.938 12.722 13.502 14.270 15.020 15.747
  -2.00   5.177  5.064  4.934  4.978  5.317  5.887  6.558  7.280  8.036  8.813  9.597 10.383 11.169 11.954 12.738 13.516 14.284 15.033 15.759
  -1.75   5.430  5.374  5.258  5.232  5.466  5.969  6.612  7.318  8.064  8.836  9.618 10.402 11.187 11.971 12.754 13.531 14.297 15.046 15.771
  -1.50   5.672  5.653  5.576  5.513  5.653  6.069  6.674  7.361  8.095  8.860  9.639 10.422 11.205 11.989 12.770 13.546 14.312 15.059 15.783
  -1.25   5.915  5.910  5.876  5.812  5.873  6.196  6.747  7.410  8.130  8.886  9.661 10.443 11.225 12.007 12.787 13.562 14.326 15.072 15.796
  -1.00   6.164  6.162  6.153  6.112  6.123  6.353  6.835  7.466  8.169  8.915  9.685 10.464 11.245 12.026 12.804 13.578 14.341 15.086 15.809
  -0.75   6.421  6.417  6.418  6.404  6.394  6.544  6.943  7.531  8.213  8.946  9.710 10.486 11.266 12.045 12.823 13.595 14.357 15.101 15.822
  -0.50   6.686  6.679  6.681  6.682  6.677  6.763  7.077  7.609  8.263  8.981  9.737 10.510 11.287 12.065 12.841 13.612 14.373 15.116 15.836
  -0.25   6.962  6.948  6.948  6.954  6.960  7.008  7.241  7.703  8.322  9.021  9.767 10.535 11.310 12.086 12.861 13.630 14.390 15.131 15.850
   0.00   7.248  7.224  7.222  7.227  7.239  7.271  7.433  7.819  8.392  9.066  9.799 10.561 11.333 12.108 12.881 13.649 14.407 15.147 15.864
   0.25   7.550  7.509  7.502  7.505  7.518  7.546  7.653  7.961  8.475  9.119  9.835 10.589 11.358 12.130 12.901 13.668 14.424 15.163 15.880
   0.50   7.868  7.803  7.788  7.789  7.800  7.825  7.897  8.130  8.577  9.181  9.876 10.619 11.383 12.153 12.923 13.688 14.443 15.180 15.895
   0.75   8.209  8.109  8.081  8.079  8.087  8.108  8.161  8.328  8.701  9.256  9.923 10.653 11.411 12.178 12.946 13.709 14.462 15.198 15.911
   1.00   8.573  8.430  8.382  8.374  8.379  8.396  8.438  8.554  8.851  9.346  9.979 10.690 11.440 12.204 12.969 13.730 14.482 15.216 15.928
   1.25   8.957  8.769  8.692  8.674  8.676  8.690  8.723  8.805  9.029  9.456 10.045 10.733 11.473 12.231 12.994 13.753 14.502 15.235 15.945
   1.50   9.359  9.127  9.014  8.981  8.978  8.988  9.015  9.076  9.238  9.590 10.126 10.783 11.508 12.260 13.019 13.776 14.524 15.254 15.963
   1.75   9.775  9.508  9.350  9.294  9.284  9.291  9.312  9.360  9.477  9.753 10.225 10.843 11.548 12.291 13.046 13.801 14.546 15.275 15.981
   2.00  10.200  9.908  9.705  9.617  9.595  9.598  9.615  9.653  9.740  9.948 10.346 10.916 11.594 12.326 13.075 13.827 14.570 15.296 16.001
   2.25  10.632 10.323 10.079  9.951  9.912  9.908  9.921  9.952 10.020 10.174 10.496 11.005 11.649 12.364 13.106 13.854 14.594 15.318 16.021
   2.50  11.068 10.749 10.473 10.300 10.235 10.223 10.231 10.256 10.311 10.428 10.678 11.116 11.715 12.408 13.140 13.882 14.620 15.341 16.042
   2.75  11.508 11.183 10.884 10.667 10.567 10.541 10.544 10.564 10.609 10.702 10.894 11.255 11.796 12.459 13.177 13.913 14.647 15.366 16.063
   3.00  11.951 11.622 11.309 11.054 10.910 10.865 10.861 10.876 10.912 10.987 11.138 11.426 11.899 12.520 13.219 13.946 14.675 15.391 16.086
   3.25  12.395 12.064 11.742 11.459 11.270 11.194 11.180 11.190 11.219 11.281 11.403 11.632 12.028 12.596 13.268 13.983 14.706 15.418 16.110
   3.50  12.840 12.508 12.182 11.877 11.647 11.533 11.503 11.506 11.530 11.581 11.682 11.867 12.190 12.692 13.327 14.024 14.739 15.446 16.135
   3.75  13.287 12.954 12.624 12.308 12.042 11.884 11.830 11.825 11.843 11.886 11.970 12.124 12.386 12.814 13.400 14.072 14.775 15.477 16.161
   4.00  13.733 13.400 13.069 12.745 12.454 12.250 12.164 12.147 12.158 12.193 12.264 12.395 12.613 12.968 13.491 14.129 14.815 15.509 16.189
   4.25  14.180 13.847 13.514 13.186 12.878 12.634 12.506 12.471 12.475 12.495 12.563 12.674 12.860 13.155 13.607 14.199 14.862 15.545 16.219
   4.50  14.626 14.292 13.960 13.629 13.309 13.001 12.828 12.765 12.759 12.779 12.827 12.959 13.121 13.371 13.754 14.287 14.917 15.584 16.251
   4.75  15.070 14.737 14.404 14.072 13.746 13.420 13.202 13.103 13.083 13.096 13.135 13.248 13.389 13.607 13.931 14.398 14.984 15.628 16.285
   5.00  15.512 15.179 14.845 14.513 14.184 13.847 13.591 13.449 13.407 13.411 13.443 13.510 13.662 13.854 14.135 14.537 15.068 15.681 16.322
   5.25  15.951 15.617 15.284 14.951 14.620 14.278 13.993 13.805 13.732 13.725 13.749 13.805 13.937 14.107 14.356 14.704 15.173 15.744 16.364
   5.50  16.384 16.051 15.717 15.384 15.052 14.708 14.404 14.172 14.060 14.035 14.051 14.098 14.187 14.362 14.585 14.892 15.302 15.822 16.413
   5.75  16.811 16.478 16.144 15.811 15.478 15.148 14.817 14.550 14.392 14.343 14.348 14.386 14.462 14.616 14.815 15.093 15.454 15.918 16.471
   6.00  17.230 16.896 16.563 16.229 15.896 15.565 15.227 14.935 14.731 14.648 14.638 14.667 14.731 14.844 15.044 15.295 15.622 16.033 16.540
   6.25  17.637 17.304 16.971 16.637 16.304 15.971 15.631 15.322 15.077 14.951 14.921 14.939 14.992 15.089 15.266 15.495 15.796 16.165 16.623
   6.50  18.032 17.699 17.366 17.032 16.699 16.366 16.023 15.704 15.427 15.254 15.196 15.201 15.242 15.325 15.482 15.688 15.967 16.307 16.719
   6.75  18.413 18.080 17.747 17.413 17.080 16.746 16.414 16.077 15.779 15.560 15.464 15.451 15.482 15.551 15.669 15.873 16.131 16.450 16.827
   7.00  18.780 18.446 18.113 17.779 17.446 17.113 16.780 16.439 16.126 15.869 15.728 15.691 15.709 15.766 15.868 16.049 16.287 16.589 16.940
   7.25  19.131 18.798 18.465 18.131 17.798 17.464 17.131 16.789 16.467 16.181 15.992 15.923 15.926 15.970 16.057 16.218 16.435 16.721 17.055
   7.50  19.470 19.137 18.803 18.470 18.137 17.803 17.470 17.126 16.799 16.494 16.261 16.151 16.133 16.165 16.238 16.361 16.577 16.847 17.168
   7.75  19.798 19.464 19.131 18.798 18.464 18.131 17.797 17.464 17.123 16.806 16.538 16.380 16.335 16.353 16.413 16.522 16.715 16.967 17.276
   8.00  20.117 19.783 19.450 19.116 18.783 18.450 18.116 17.783 17.440 17.115 16.822 16.617 16.536 16.536 16.584 16.678 16.852 17.084 17.381
   8.25  20.429 20.095 19.762 19.429 19.095 18.762 18.428 18.094 17.751 17.422 17.112 16.866 16.740 16.717 16.752 16.832 16.988 17.200 17.483
   8.50  20.736 20.402 20.069 19.736 19.402 19.069 18.735 18.402 18.057 17.726 17.405 17.127 16.953 16.899 16.918 16.986 17.104 17.317 17.585
   8.75  21.039 20.706 20.372 20.039 19.706 19.372 19.039 18.705 18.371 18.028 17.701 17.401 17.181 17.087 17.085 17.140 17.244 17.436 17.686
   9.00  21.340 21.007 20.673 20.340 20.007 19.673 19.340 19.006 18.672 18.328 17.998 17.683 17.425 17.284 17.255 17.294 17.386 17.558 17.789
   9.25  21.640 21.306 20.973 20.640 20.306 19.973 19.639 19.306 18.972 18.628 18.296 17.972 17.684 17.495 17.431 17.452 17.529 17.683 17.895
   9.50  21.938 21.605 21.272 20.938 20.605 20.272 19.938 19.605 19.271 18.926 18.593 18.264 17.957 17.723 17.615 17.612 17.675 17.792 18.004
   9.75  22.236 21.903 21.570 21.236 20.903 20.570 20.236 19.903 19.569 19.235 18.891 18.559 18.240 17.970 17.813 17.778 17.823 17.926 18.118
  30.00   3.000  3.333  3.667  4.000  4.333  4.667  5.000  5.333  5.667  6.000  6.333  6.667  7.000  7.333  7.667  8.000  8.333  8.667  9.000
  -6.00   1.494  2.209  2.951  3.711  4.489  5.281  6.079  6.877  7.675  8.474  9.273 10.072 10.872 11.671 12.468 13.259 14.036 14.792 15.519
  -5.75   1.548  2.250  2.983  3.737  4.509  5.298  6.094  6.892  7.690  8.488  9.286 10.085 10.884 11.683 12.479 13.269 14.046 14.803 15.532
  -5.50   1.610  2.294  3.018  3.765  4.531  5.315  6.110  6.907  7.704  8.502  9.299 10.097 10.896 11.694 12.490 13.279 14.056 14.813 15.544
  -5.25   1.684  2.344  3.056  3.795  4.555  5.334  6.126  6.922  7.719  8.516  9.313 10.110 10.908 11.706 12.501 13.290 14.066 14.823 15.555
  -5.00   1.773  2.401  3.097  3.828  4.580  5.354  6.143  6.938  7.735  8.531  9.327 10.124 10.921 11.718 12.512 13.300 14.077 14.833 15.565
  -4.75   1.885  2.467  3.144  3.863  4.609  5.376  6.161  6.954  7.750  8.546  9.342 10.138 10.934 11.730 12.524 13.311 14.087 14.843 15.575
  -4.50   2.033  2.545  3.196  3.902  4.639  5.399  6.180  6.971  7.766  8.561  9.356 10.152 10.947 11.742 12.535 13.322 14.098 14.853 15.585
  -4.25   2.227  2.641  3.255  3.946  4.673  5.425  6.200  6.989  7.783  8.577  9.372 10.166 10.961 11.755 12.547 13.334 14.108 14.864 15.595
  -4.00   2.473  2.763  3.325  3.994  4.709  5.454  6.222  7.007  7.799  8.593  9.387 10.181 10.975 11.768 12.560 13.345 14.119 14.874 15.605
  -3.75   2.767  2.924  3.408  4.048  4.750  5.485  6.245  7.026  7.817  8.610  9.403 10.196 10.989 11.782 12.572 13.357 14.130 14.885 15.616
  -3.50   3.103  3.132  3.512  4.111  4.794  5.519  6.271  7.047  7.835  8.627  9.419 10.212 11.004 11.796 12.585 13.369 14.142 14.896 15.626
  -3.25   3.467  3.388  3.645  4.184  4.844  5.556  6.299  7.068  7.854  8.644  9.436 10.228 11.019 11.810 12.599 13.382 14.154 14.907 15.636
  -3.00   3.842  3.687  3.819  4.273  4.901  5.598  6.331  7.092  7.873  8.662  9.453 10.244 11.035 11.825 12.613 13.395 14.166 14.918 15.647
  -2.75   4.213  4.018  4.037  4.386  4.967  5.644  6.365  7.118  7.894  8.681  9.471 10.261 11.051 11.840 12.627 13.408 14.178 14.930 15.658
  -2.50   4.566  4.367  4.299  4.530  5.046  5.696  6.403  7.146  7.916  8.701  9.489 10.278 11.067 11.855 12.641 13.422 14.191 14.941 15.669
  -2.25   4.888  4.718  4.596  4.715  5.142  5.756  6.446  7.178  7.940  8.721  9.508 10.296 11.084 11.871 12.656 13.436 14.204 14.954 15.680
  -2.00   5.170  5.055  4.916  4.940  5.263  5.826  6.494  7.213  7.966  8.742  9.527 10.314 11.101 11.888 12.672 13.450 14.217 14.966 15.692
  -1.75   5.423  5.366  5.244  5.202  5.418  5.909  6.549  7.252  7.995  8.765  9.547 10.333 11.119 11.905 12.687 13.465 14.231 14.979 15.704
  -1.50   5.665  5.645  5.565  5.491  5.610  6.013  6.612  7.296  8.026  8.789  9.569 10.353 11.138 11.922 12.704 13.480 14.245 14.992 15.716
  -1.25   5.908  5.902  5.866  5.795  5.838  6.143  6.686  7.346  8.062  8.815  9.591 10.373 11.157 11.940 12.720 13.496 14.260 15.006 15.729
  -1.00   6.157  6.155  6.145  6.099  6.095  6.307  6.776  7.403  8.101  8.844  9.614 10.394 11.177 11.958 12.738 13.512 14.275 15.020 15.742
  -0.75   6.414  6.410  6.409  6.392  6.373  6.503  6.887  7.470  8.147  8.876  9.639 10.416 11.197 11.978 12.756 13.529 14.290 15.034 15.755
  -0.50   6.679  6.672  6.673  6.672  6.660  6.730  7.026  7.549  8.199  8.912  9.666 10.439 11.218 11.997 12.774 13.546 14.306 15.049 15.769
  -0.25   6.954  6.941  6.940  6.945  6.946  6.982  7.196  7.646  8.259  8.953  9.695 10.463 11.240 12.018 12.793 13.564 14.323 15.064 15.783
   0.00   7.241  7.217  7.214  7.218  7.227  7.251  7.395  7.765  8.330  8.999  9.728 10.489 11.263 12.039 12.813 13.582 14.340 15.080 15.798
   0.25   7.541  7.502  7.494  7.497  7.507  7.529  7.621  7.912  8.415  9.054  9.764 10.517 11.287 12.061 12.834 13.601 14.358 15.096 15.813
   0.50   7.859  7.796  7.781  7.781  7.790  7.811  7.872  8.087  8.520  9.118  9.806 10.547 11.312 12.084 12.855 13.621 14.376 15.113 15.828
   0.75   8.198  8.101  8.074  8.071  8.078  8.095  8.140  8.290  8.648  9.194  9.855 10.581 11.339 12.108 12.877 13.641 14.395 15.131 15.844
   1.00   8.560  8.421  8.375  8.366  8.370  8.385  8.420  8.522  8.803  9.287  9.912 10.619 11.368 12.133 12.900 13.663 14.415 15.149 15.861
   1.25   8.943  8.757  8.684  8.666  8.668  8.679  8.708  8.780  8.987  9.400  9.980 10.662 11.400 12.160 12.924 13.685 14.435 15.168 15.878
   1.50   9.344  9.115  9.005  8.973  8.970  8.978  9.001  9.055  9.201  9.538 10.063 10.714 11.435 12.188 12.949 13.708 14.456 15.187 15.896
   1.75   9.759  9.494  9.340  9.286  9.276  9.282  9.300  9.342  9.446  9.706 10.165 10.775 11.475 12.219 12.976 13.732 14.478 15.207 15.914
   2.00  10.183  9.893  9.693  9.608  9.587  9.589  9.603  9.637  9.714  9.905 10.290 10.850 11.522 12.253 13.004 13.757 14.501 15.228 15.933
   2.25  10.615 10.307 10.066  9.941  9.903  9.900  9.910  9.937  9.997 10.137 10.444 10.941 11.577 12.291 13.034 13.784 14.525 15.250 15.953
   2.50  11.051 10.732 10.458 10.289 10.226 10.214 10.221 10.242 10.290 10.396 10.631 11.056 11.645 12.334 13.067 13.812 14.550 15.273 15.974
   2.75  11.490 11.166 10.868 10.654 10.557 10.532 10.534 10.551 10.590 10.673 10.851 11.198 11.728 12.385 13.104 13.842 14.577 15.297 15.995
   3.00  11.932 11.604 11.292 11.039 10.900 10.855 10.851 10.864 10.895 10.962 11.100 11.374 11.833 12.447 13.145 13.874 14.605 15.322 16.018
   3.25  12.376 12.046 11.725 11.443 11.257 11.185 11.170 11.178 11.204 11.259 11.370 11.584 11.966 12.524 13.194 13.910 14.635 15.349 16.042
   3.50  12.821 12.490 12.163 11.860 11.633 11.522 11.493 11.495 11.516 11.561 11.652 11.824 12.132 12.622 13.252 13.951 14.667 15.376 16.066
   3.75  13.267 12.935 12.605 12.290 12.027 11.872 11.820 11.814 11.830 11.867 11.943 12.084 12.332 12.746 13.325 13.998 14.703 15.406 16.092
   4.00  13.714 13.381 13.049 12.726 12.437 12.237 12.153 12.136 12.145 12.176 12.239 12.358 12.563 12.903 13.417 14.054 14.742 15.438 16.120
   4.25  14.160 13.827 13.494 13.167 12.860 12.618 12.494 12.458 12.453 12.468 12.540 12.641 12.814 13.093 13.534 14.123 14.787 15.473 16.149
   4.50  14.605 14.272 13.939 13.609 13.290 12.985 12.815 12.754 12.747 12.764 12.806 12.929 13.078 13.313 13.682 14.210 14.841 15.511 16.180
   4.75  15.049 14.715 14.382 14.050 13.725 13.402 13.187 13.091 13.070 13.081 13.116 13.220 13.350 13.553 13.862 14.321 14.907 15.555 16.214
   5.00  15.490 15.157 14.823 14.491 14.162 13.827 13.574 13.435 13.394 13.397 13.425 13.485 13.625 13.805 14.070 14.461 14.990 15.606 16.250
   5.25  15.928 15.594 15.261 14.928 14.597 14.256 13.974 13.789 13.718 13.710 13.731 13.782 13.903 14.062 14.294 14.629 15.095 15.668 16.291
   5.50  16.360 16.027 15.694 15.360 15.028 14.701 14.382 14.154 14.045 14.020 14.034 14.075 14.157 14.320 14.527 14.820 15.224 15.745 16.339
   5.75  16.786 16.453 16.120 15.786 15.454 15.124 14.794 14.530 14.376 14.327 14.331 14.364 14.433 14.576 14.762 15.023 15.376 15.840 16.395
   6.00  17.204 16.871 16.537 16.204 15.871 15.539 15.203 14.913 14.713 14.631 14.621 14.646 14.704 14.808 14.994 15.230 15.545 15.954 16.463
   6.25  17.611 17.277 16.944 16.611 16.277 15.945 15.605 15.297 15.056 14.933 14.903 14.919 14.966 15.056 15.221 15.434 15.720 16.085 16.545
   6.50  18.005 17.672 17.338 17.005 16.671 16.338 16.008 15.678 15.404 15.235 15.178 15.181 15.218 15.294 15.420 15.631 15.894 16.226 16.640
   6.75  18.385 18.052 17.718 17.385 17.052 16.718 16.386 16.051 15.753 15.539 15.445 15.431 15.458 15.521 15.631 15.820 16.061 16.370 16.746
   7.00  18.751 18.417 18.084 17.751 17.417 17.084 16.751 16.412 16.099 15.846 15.708 15.671 15.687 15.738 15.832 16.001 16.221 16.510 16.859
   7.25  19.102 18.768 18.435 18.102 17.768 17.435 17.102 16.760 16.439 16.156 15.971 15.903 15.904 15.944 16.024 16.155 16.373 16.644 16.973
   7.50  19.440 19.107 18.773 18.440 18.107 17.773 17.440 17.107 16.770 16.467 16.238 16.130 16.112 16.140 16.207 16.323 16.520 16.773 17.085
   7.75  19.767 19.434 19.100 18.767 18.434 18.100 17.767 17.434 17.094 16.777 16.512 16.358 16.314 16.330 16.384 16.485 16.663 16.896 17.195
   8.00  20.085 19.752 19.419 19.085 18.752 18.419 18.085 17.752 17.410 17.086 16.795 16.594 16.515 16.514 16.557 16.644 16.804 17.018 17.301
   8.25  20.397 20.064 19.730 19.397 19.064 18.730 18.397 18.063 17.720 17.392 17.083 16.840 16.718 16.695 16.726 16.800 16.925 17.138 17.405
   8.50  20.704 20.370 20.037 19.704 19.370 19.037 18.703 18.370 18.026 17.695 17.376 17.100 16.930 16.877 16.894 16.955 17.066 17.260 17.509
   8.75  21.007 20.673 20.340 20.007 19.673 19.340 19.006 18.673 18.339 17.997 17.671 17.372 17.156 17.064 17.062 17.111 17.208 17.383 17.614
   9.00  21.307 20.974 20.641 20.307 19.974 19.641 19.307 18.973 18.640 18.297 17.967 17.653 17.398 17.261 17.232 17.267 17.351 17.488 17.722
   9.25  21.606 21.273 20.940 20.606 20.273 19.940 19.606 19.273 18.939 18.595 18.264 17.941 17.656 17.470 17.408 17.426 17.496 17.620 17.832
   9.50  21.904 21.571 21.238 20.904 20.571 20.238 19.904 19.571 19.237 18.893 18.560 18.232 17.927 17.697 17.592 17.587 17.644 17.754 17.947
   9.75  22.202 21.868 21.535 21.202 20.868 20.535 20.202 19.868 19.534 19.201 18.857 18.526 18.209 17.942 17.788 17.754 17.794 17.890 18.065
  36.00   3.000  3.333  3.667  4.000  4.333  4.667  5.000  5.333  5.667  6.000  6.333  6.667  7.000  7.333  7.667  8.000  8.333  8.667  9.000
  -6.00   1.411  2.125  2.865  3.623  4.398  5.189  5.987  6.787  7.587  8.386  9.186  9.985 10.785 11.584 12.381 13.171 13.948 14.704 15.431
  -5.75   1.466  2.166  2.898  3.650  4.419  5.205  6.002  6.802  7.601  8.400  9.199  9.998 10.797 11.596 12.392 13.181 13.958 14.715 15.443
  -5.50   1.530  2.211  2.933  3.678  4.442  5.223  6.018  6.816  7.615  8.414  9.212 10.010 10.809 11.607 12.403 13.192 13.968 14.725 15.455
  -5.25   1.605  2.262  2.971  3.709  4.466  5.242  6.034  6.831  7.630  8.428  9.226 10.023 10.821 11.619 12.414 13.202 13.979 14.735 15.466
  -5.00   1.697  2.320  3.014  3.742  4.493  5.263  6.051  6.847  7.645  8.442  9.239 10.037 10.834 11.631 12.425 13.213 13.989 14.745 15.477
  -4.75   1.814  2.387  3.061  3.779  4.522  5.286  6.068  6.863  7.660  8.457  9.254 10.050 10.847 11.643 12.436 13.224 13.999 14.755 15.487
  -4.50   1.969  2.467  3.113  3.818  4.553  5.310  6.088  6.879  7.675  8.472  9.268 10.064 10.860 11.655 12.448 13.235 14.010 14.765 15.497
  -4.25   2.171  2.566  3.174  3.862  4.587  5.337  6.108  6.896  7.691  8.487  9.283 10.079 10.874 11.668 12.460 13.246 14.021 14.776 15.507
  -4.00   2.426  2.694  3.245  3.911  4.625  5.366  6.130  6.914  7.708  8.503  9.298 10.093 10.888 11.681 12.473 13.258 14.032 14.786 15.517
  -3.75   2.730  2.862  3.331  3.966  4.666  5.398  6.155  6.934  7.725  8.519  9.314 10.108 10.902 11.695 12.485 13.270 14.043 14.797 15.527
  -3.50   3.075  3.079  3.439  4.030  4.711  5.433  6.182  6.954  7.742  8.536  9.330 10.124 10.917 11.709 12.498 13.282 14.054 14.808 15.537
  -3.25   3.447  3.344  3.578  4.105  4.762  5.471  6.211  6.976  7.761  8.553  9.346 10.139 10.932 11.723 12.512 13.295 14.066 14.819 15.548
  -3.00   3.827  3.653  3.760  4.198  4.820  5.513  6.244  7.001  7.780  8.571  9.363 10.155 10.947 11.737 12.525 13.308 14.078 14.830 15.559
  -2.75   4.200  3.993  3.987  4.314  4.887  5.561  6.279  7.028  7.801  8.589  9.380 10.172 10.963 11.752 12.539 13.321 14.090 14.842 15.569
  -2.50   4.554  4.348  4.258  4.466  4.968  5.614  6.318  7.057  7.824  8.608  9.398 10.189 10.979 11.768 12.554 13.334 14.103 14.853 15.581
  -2.25   4.877  4.703  4.565  4.658  5.067  5.675  6.362  7.090  7.848  8.628  9.416 10.206 10.996 11.784 12.569 13.348 14.116 14.866 15.592
  -2.00   5.159  5.042  4.893  4.893  5.194  5.746  6.411  7.126  7.875  8.649  9.435 10.224 11.013 11.800 12.584 13.363 14.130 14.878 15.604
  -1.75   5.412  5.354  5.226  5.164  5.356  5.833  6.467  7.166  7.904  8.672  9.455 10.243 11.030 11.816 12.600 13.377 14.143 14.891 15.616
  -1.50   5.653  5.633  5.550  5.462  5.556  5.940  6.531  7.211  7.937  8.696  9.475 10.262 11.048 11.834 12.616 13.392 14.157 14.904 15.628
  -1.25   5.897  5.890  5.852  5.772  5.794  6.076  6.607  7.262  7.974  8.723  9.497 10.281 11.067 11.851 12.633 13.408 14.172 14.918 15.640
  -1.00   6.146  6.143  6.131  6.081  6.060  6.247  6.700  7.321  8.015  8.753  9.520 10.302 11.086 11.869 12.650 13.424 14.187 14.932 15.653
  -0.75   6.403  6.399  6.397  6.376  6.346  6.452  6.816  7.389  8.062  8.786  9.545 10.323 11.106 11.888 12.667 13.441 14.202 14.946 15.667
  -0.50   6.668  6.661  6.660  6.657  6.638  6.688  6.961  7.471  8.115  8.823  9.572 10.345 11.126 11.907 12.686 13.458 14.218 14.961 15.680
  -0.25   6.942  6.929  6.928  6.931  6.927  6.948  7.138  7.571  8.177  8.865  9.602 10.369 11.148 11.927 12.704 13.475 14.235 14.976 15.695
   0.00   7.227  7.206  7.202  7.205  7.211  7.224  7.346  7.696  8.250  8.914  9.636 10.395 11.170 11.948 12.724 13.493 14.252 14.992 15.709
   0.25   7.526  7.490  7.482  7.484  7.492  7.506  7.581  7.849  8.338  8.970  9.674 10.423 11.193 11.969 12.744 13.512 14.269 15.008 15.724
   0.50   7.843  7.783  7.769  7.768  7.775  7.791  7.839  8.031  8.447  9.035  9.717 10.453 11.218 11.992 12.765 13.532 14.287 15.025 15.739
   0.75   8.181  8.088  8.062  8.058  8.063  8.078  8.113  8.243  8.580  9.114  9.768 10.487 11.245 12.015 12.786 13.552 14.306 15.042 15.755
   1.00   8.541  8.406  8.362  8.353  8.356  8.368  8.397  8.483  8.741  9.210  9.827 10.526 11.273 12.040 12.809 13.573 14.325 15.060 15.772
   1.25   8.922  8.741  8.671  8.654  8.654  8.664  8.687  8.747  8.933  9.328  9.898 10.572 11.305 12.065 12.832 13.594 14.345 15.079 15.789
   1.50   9.322  9.097  8.991  8.960  8.957  8.963  8.982  9.027  9.155  9.472  9.984 10.625 11.340 12.093 12.856 13.617 14.366 15.098 15.807
   1.75   9.735  9.474  9.325  9.273  9.263  9.267  9.282  9.317  9.406  9.646 10.089 10.688 11.381 12.123 12.882 13.640 14.388 15.118 15.825
   2.00  10.159  9.871  9.676  9.594  9.574  9.575  9.586  9.614  9.680  9.852 10.219 10.766 11.429 12.157 12.910 13.665 14.410 15.139 15.844
   2.25  10.590 10.284 10.046  9.926  9.890  9.886  9.894  9.917  9.967 10.091 10.378 10.861 11.486 12.194 12.939 13.690 14.434 15.160 15.863
   2.50  11.025 10.708 10.437 10.272 10.212 10.200 10.205 10.223 10.264 10.355 10.571 10.980 11.556 12.238 12.971 13.718 14.458 15.182 15.884
   2.75  11.465 11.140 10.845 10.636 10.542 10.518 10.519 10.533 10.566 10.637 10.797 11.127 11.642 12.290 13.007 13.747 14.484 15.206 15.905
   3.00  11.906 11.578 11.268 11.019 10.884 10.841 10.836 10.846 10.873 10.930 11.052 11.308 11.751 12.353 13.048 13.779 14.512 15.230 15.927
   3.25  12.350 12.019 11.699 11.419 11.239 11.169 11.155 11.161 11.183 11.230 11.326 11.523 11.888 12.433 13.096 13.813 14.541 15.256 15.950
   3.50  12.794 12.463 12.137 11.836 11.612 11.506 11.478 11.479 11.496 11.534 11.613 11.768 12.059 12.533 13.155 13.853 14.572 15.283 15.975
   3.75  13.240 12.907 12.578 12.264 12.004 11.854 11.804 11.798 11.810 11.842 11.907 12.034 12.265 12.661 13.228 13.899 14.606 15.312 16.000
   4.00  13.685 13.353 13.021 12.699 12.412 12.216 12.136 12.119 12.126 12.152 12.206 12.312 12.500 12.822 13.322 13.954 14.645 15.343 16.027
   4.25  14.131 13.798 13.466 13.138 12.832 12.558 12.438 12.404 12.412 12.441 12.488 12.598 12.756 13.018 13.441 14.023 14.689 15.377 16.055
   4.50  14.575 14.242 13.909 13.579 13.261 12.960 12.795 12.736 12.729 12.743 12.779 12.889 13.024 13.243 13.593 14.111 14.741 15.414 16.085
   4.75  15.018 14.685 14.352 14.020 13.696 13.375 13.164 13.072 13.052 13.060 13.090 13.151 13.299 13.488 13.778 14.223 14.807 15.456 16.118
   5.00  15.458 15.125 14.792 14.459 14.131 13.798 13.549 13.414 13.374 13.376 13.400 13.451 13.578 13.743 13.990 14.364 14.889 15.506 16.154
   5.25  15.895 15.561 15.228 14.895 14.564 14.244 13.946 13.765 13.697 13.689 13.706 13.750 13.833 14.004 14.220 14.536 14.993 15.567 16.193
   5.50  16.326 15.993 15.659 15.326 14.994 14.668 14.352 14.127 14.022 13.998 14.009 14.045 14.116 14.265 14.457 14.730 15.122 15.642 16.239
   5.75  16.751 16.418 16.084 15.751 15.418 15.089 14.761 14.500 14.351 14.304 14.306 14.334 14.395 14.504 14.697 14.938 15.276 15.736 16.294
   6.00  17.167 16.834 16.500 16.167 15.834 15.503 15.168 14.880 14.685 14.606 14.596 14.617 14.668 14.762 14.933 15.150 15.447 15.850 16.361
   6.25  17.573 17.239 16.906 16.573 16.239 15.907 15.579 15.263 15.025 14.906 14.877 14.890 14.931 15.012 15.144 15.359 15.626 15.981 16.441
   6.50  17.966 17.632 17.299 16.966 16.632 16.300 15.969 15.642 15.371 15.206 15.151 15.152 15.184 15.252 15.368 15.561 15.804 16.123 16.534
   6.75  18.345 18.012 17.678 17.345 17.012 16.678 16.346 16.012 15.717 15.507 15.417 15.403 15.426 15.482 15.582 15.755 15.976 16.268 16.639
   7.00  18.710 18.376 18.043 17.709 17.376 17.043 16.710 16.372 16.061 15.811 15.678 15.643 15.655 15.700 15.786 15.923 16.141 16.411 16.752
   7.25  19.060 18.727 18.393 18.060 17.726 17.393 17.060 16.720 16.399 16.119 15.939 15.874 15.873 15.908 15.980 16.101 16.299 16.549 16.866
   7.50  19.397 19.064 18.731 18.397 18.064 17.731 17.397 17.065 16.730 16.428 16.204 16.100 16.082 16.106 16.166 16.272 16.451 16.682 16.980
   7.75  19.724 19.391 19.057 18.724 18.391 18.057 17.724 17.391 17.052 16.737 16.476 16.327 16.284 16.296 16.345 16.437 16.580 16.811 17.091
   8.00  20.042 19.708 19.375 19.042 18.708 18.375 18.042 17.708 17.368 17.045 16.756 16.560 16.484 16.481 16.519 16.598 16.727 16.938 17.200
   8.25  20.353 20.020 19.686 19.353 19.019 18.686 18.353 18.019 17.678 17.350 17.043 16.804 16.686 16.663 16.690 16.756 16.872 17.064 17.309
   8.50  20.659 20.326 19.992 19.659 19.326 18.992 18.659 18.325 17.992 17.652 17.334 17.062 16.897 16.846 16.859 16.914 17.016 17.191 17.417
   8.75  20.961 20.628 20.295 19.961 19.628 19.295 18.961 18.628 18.294 17.953 17.628 17.332 17.121 17.032 17.028 17.071 17.160 17.301 17.528
   9.00  21.262 20.928 20.595 20.262 19.928 19.595 19.261 18.928 18.594 18.252 17.923 17.611 17.360 17.227 17.199 17.229 17.305 17.433 17.641
   9.25  21.560 21.227 20.893 20.560 20.227 19.893 19.560 19.226 18.893 18.550 18.219 17.898 17.616 17.435 17.375 17.389 17.453 17.567 17.757
   9.50  21.857 21.524 21.191 20.857 20.524 20.191 19.857 19.524 19.190 18.856 18.515 18.188 17.885 17.659 17.558 17.552 17.602 17.703 17.877
   9.75  22.154 21.821 21.488 21.154 20.821 20.487 20.154 19.821 19.487 19.153 18.811 18.481 18.165 17.902 17.753 17.719 17.755 17.842 17.982
  42.00   3.000  3.333  3.667  4.000  4.333  4.667  5.000  5.333  5.667  6.000  6.333  6.667  7.000  7.333  7.667  8.000  8.333  8.667  9.000
  -6.00   1.338  2.051  2.790  3.547  4.319  5.108  5.906  6.708  7.508  8.309  9.109  9.909 10.708 11.508 12.304 13.094 13.870 14.626 15.352
  -5.75   1.394  2.092  2.823  3.574  4.341  5.125  5.921  6.722  7.522  8.322  9.121  9.921 10.720 11.519 12.315 13.104 13.881 14.637 15.365
  -5.50   1.459  2.138  2.858  3.603  4.364  5.143  5.936  6.736  7.536  8.336  9.135  9.934 10.732 11.530 12.326 13.114 13.891 14.647 15.377
  -5.25   1.536  2.189  2.897  3.634  4.389  5.163  5.952  6.751  7.550  8.350  9.148  9.946 10.745 11.542 12.337 13.125 13.901 14.657 15.388
  -5.00   1.631  2.248  2.940  3.668  4.417  5.184  5.969  6.766  7.565  8.364  9.162  9.960 10.757 11.554 12.348 13.136 13.911 14.667 15.398
  -4.75   1.753  2.317  2.988  3.704  4.446  5.207  5.987  6.781  7.580  8.378  9.176  9.973 10.770 11.566 12.359 13.147 13.922 14.677 15.409
  -4.50   1.914  2.399  3.041  3.744  4.478  5.233  6.007  6.798  7.595  8.393  9.190  9.987 10.783 11.579 12.371 13.158 13.932 14.687 15.419
  -4.25   2.123  2.502  3.103  3.789  4.513  5.260  6.028  6.815  7.611  8.408  9.205 10.001 10.797 11.591 12.383 13.169 13.943 14.698 15.429
  -4.00   2.386  2.635  3.176  3.838  4.550  5.290  6.051  6.833  7.627  8.423  9.220 10.016 10.811 11.604 12.396 13.181 13.954 14.708 15.439
  -3.75   2.699  2.810  3.264  3.894  4.592  5.323  6.077  6.852  7.643  8.439  9.235 10.030 10.825 11.618 12.408 13.193 13.965 14.719 15.449
  -3.50   3.051  3.033  3.376  3.959  4.638  5.358  6.105  6.874  7.661  8.455  9.251 10.045 10.839 11.632 12.421 13.205 13.977 14.730 15.459
  -3.25   3.428  3.307  3.521  4.037  4.689  5.397  6.135  6.897  7.679  8.472  9.267 10.061 10.854 11.646 12.435 13.217 13.988 14.741 15.470
  -3.00   3.811  3.624  3.709  4.132  4.748  5.440  6.168  6.922  7.699  8.489  9.283 10.077 10.869 11.660 12.448 13.230 14.001 14.752 15.480
  -2.75   4.187  3.971  3.944  4.253  4.817  5.488  6.204  6.949  7.720  8.507  9.300 10.093 10.885 11.675 12.462 13.243 14.013 14.764 15.491
  -2.50   4.542  4.331  4.224  4.410  4.900  5.542  6.244  6.980  7.743  8.526  9.317 10.110 10.901 11.690 12.477 13.257 14.026 14.776 15.502
  -2.25   4.865  4.688  4.538  4.610  5.003  5.604  6.288  7.014  7.768  8.546  9.335 10.127 10.917 11.706 12.491 13.271 14.039 14.788 15.514
  -2.00   5.147  5.029  4.871  4.853  5.134  5.677  6.338  7.051  7.795  8.567  9.354 10.144 10.934 11.722 12.507 13.285 14.052 14.800 15.525
  -1.75   5.399  5.341  5.208  5.132  5.302  5.766  6.395  7.092  7.826  8.590  9.373 10.162 10.951 11.738 12.522 13.300 14.066 14.813 15.537
  -1.50   5.641  5.620  5.534  5.437  5.510  5.877  6.461  7.138  7.860  8.615  9.393 10.180 10.969 11.755 12.538 13.315 14.080 14.826 15.550
  -1.25   5.884  5.877  5.838  5.752  5.756  6.018  6.539  7.190  7.898  8.643  9.415 10.200 10.987 11.772 12.555 13.330 14.094 14.840 15.562
  -1.00   6.134  6.130  6.118  6.063  6.030  6.196  6.634  7.249  7.940  8.673  9.438 10.220 11.006 11.790 12.571 13.346 14.109 14.854 15.575
  -0.75   6.390  6.386  6.383  6.360  6.322  6.408  6.754  7.319  7.988  8.708  9.463 10.241 11.025 11.809 12.589 13.363 14.124 14.868 15.588
  -0.50   6.655  6.648  6.647  6.642  6.618  6.652  6.905  7.403  8.042  8.746  9.491 10.263 11.045 11.828 12.607 13.379 14.140 14.883 15.602
  -0.25   6.929  6.916  6.915  6.916  6.909  6.919  7.089  7.507  8.106  8.790  9.522 10.287 11.066 11.847 12.625 13.397 14.157 14.898 15.616
   0.00   7.213  7.193  7.189  7.191  7.194  7.200  7.304  7.636  8.181  8.839  9.556 10.312 11.087 11.867 12.644 13.415 14.173 14.913 15.631
   0.25   7.512  7.477  7.469  7.470  7.476  7.486  7.546  7.794  8.271  8.897  9.596 10.340 11.110 11.888 12.664 13.433 14.191 14.929 15.645
   0.50   7.827  7.770  7.755  7.755  7.760  7.772  7.811  7.984  8.383  8.964  9.641 10.371 11.135 11.910 12.684 13.452 14.209 14.946 15.661
   0.75   8.164  8.073  8.048  8.045  8.049  8.060  8.089  8.203  8.521  9.045  9.693 10.407 11.161 11.933 12.705 13.472 14.227 14.963 15.677
   1.00   8.522  8.390  8.348  8.340  8.342  8.352  8.375  8.449  8.688  9.144  9.754 10.447 11.190 11.956 12.727 13.493 14.246 14.981 15.693
   1.25   8.901  8.724  8.657  8.640  8.640  8.648  8.667  8.718  8.886  9.265  9.827 10.494 11.222 11.982 12.750 13.514 14.266 14.999 15.710
   1.50   9.300  9.079  8.976  8.946  8.942  8.948  8.964  9.002  9.115  9.414  9.915 10.549 11.258 12.009 12.774 13.536 14.286 15.018 15.727
   1.75   9.712  9.454  9.308  9.259  9.249  9.252  9.265  9.295  9.373  9.594 10.024 10.614 11.300 12.039 12.799 13.558 14.307 15.038 15.745
   2.00  10.135  9.849  9.657  9.579  9.560  9.560  9.570  9.593  9.650  9.806 10.158 10.694 11.349 12.073 12.826 13.582 14.330 15.058 15.764
   2.25  10.565 10.261 10.026  9.910  9.876  9.871  9.878  9.897  9.941 10.051 10.322 10.792 11.408 12.111 12.855 13.607 14.352 15.080 15.784
   2.50  11.001 10.684 10.416 10.255 10.197 10.185 10.189 10.205 10.240 10.320 10.520 10.914 11.480 12.155 12.886 13.634 14.376 15.102 15.804
   2.75  11.440 11.116 10.823 10.617 10.527 10.503 10.503 10.515 10.543 10.606 10.751 11.066 11.570 12.208 12.922 13.663 14.402 15.124 15.825
   3.00  11.881 11.553 11.244 10.997 10.866 10.826 10.820 10.829 10.851 10.901 11.011 11.252 11.682 12.273 12.963 13.693 14.428 15.148 15.846
   3.25  12.324 11.994 11.674 11.396 11.220 11.153 11.139 11.144 11.163 11.203 11.289 11.472 11.823 12.355 13.012 13.728 14.456 15.173 15.869
   3.50  12.768 12.436 12.111 11.812 11.592 11.489 11.461 11.461 11.476 11.509 11.579 11.721 11.998 12.458 13.071 13.767 14.487 15.200 15.893
   3.75  13.213 12.881 12.552 12.238 11.981 11.835 11.787 11.780 11.791 11.818 11.876 11.990 12.208 12.590 13.146 13.812 14.520 15.228 15.918
   4.00  13.658 13.325 12.994 12.672 12.386 12.195 12.118 12.101 12.107 12.129 12.177 12.271 12.447 12.755 13.241 13.868 14.558 15.258 15.944
   4.25  14.103 13.769 13.437 13.111 12.806 12.536 12.419 12.387 12.387 12.407 12.455 12.560 12.706 12.955 13.364 13.937 14.601 15.291 15.971
   4.50  14.546 14.213 13.880 13.551 13.234 12.935 12.774 12.718 12.710 12.722 12.754 12.854 12.977 13.184 13.519 14.025 14.653 15.327 16.001
   4.75  14.988 14.655 14.322 13.990 13.666 13.348 13.142 13.052 13.032 13.039 13.065 13.120 13.255 13.432 13.708 14.139 14.718 15.368 16.032
   5.00  15.427 15.094 14.761 14.428 14.100 13.791 13.523 13.393 13.354 13.355 13.375 13.421 13.530 13.690 13.924 14.283 14.800 15.417 16.067
   5.25  15.863 15.529 15.196 14.863 14.533 14.213 13.918 13.742 13.676 13.667 13.682 13.720 13.796 13.953 14.157 14.458 14.905 15.477 16.106
   5.50  16.293 15.960 15.626 15.293 14.962 14.636 14.322 14.101 13.999 13.975 13.984 14.016 14.080 14.197 14.399 14.656 15.036 15.552 16.151
   5.75  16.717 16.383 16.050 15.717 15.384 15.055 14.729 14.471 14.326 14.280 14.281 14.306 14.360 14.460 14.641 14.869 15.191 15.645 16.204
   6.00  17.132 16.798 16.465 16.132 15.799 15.468 15.134 14.849 14.657 14.581 14.570 14.588 14.634 14.720 14.871 15.084 15.366 15.759 16.269
   6.25  17.536 17.203 16.869 16.536 16.203 15.871 15.544 15.229 14.995 14.880 14.851 14.862 14.898 14.972 15.095 15.297 15.548 15.891 16.349
   6.50  17.928 17.595 17.262 16.928 16.595 16.262 15.932 15.606 15.338 15.177 15.124 15.124 15.152 15.214 15.322 15.503 15.730 16.035 16.442
   6.75  18.306 17.973 17.640 17.306 16.973 16.640 16.308 15.976 15.682 15.476 15.389 15.374 15.395 15.445 15.538 15.683 15.907 16.183 16.547
   7.00  18.670 18.337 18.004 17.670 17.337 17.004 16.671 16.334 16.025 15.778 15.648 15.614 15.624 15.665 15.743 15.873 16.076 16.329 16.659
   7.25  19.020 18.687 18.353 18.020 17.686 17.353 17.020 16.689 16.362 16.084 15.907 15.844 15.843 15.874 15.939 16.053 16.238 16.471 16.775
   7.50  19.357 19.024 18.690 18.357 18.023 17.690 17.357 17.025 16.691 16.391 16.170 16.070 16.051 16.073 16.127 16.226 16.377 16.608 16.890
   7.75  19.683 19.350 19.016 18.683 18.350 18.016 17.683 17.350 17.013 16.699 16.440 16.295 16.254 16.264 16.308 16.393 16.529 16.741 17.004
   8.00  20.000 19.667 19.334 19.000 18.667 18.334 18.000 17.667 17.328 17.005 16.719 16.527 16.453 16.450 16.483 16.556 16.677 16.872 17.117
   8.25  20.311 19.978 19.644 19.311 18.978 18.644 18.311 17.977 17.645 17.310 17.004 16.769 16.655 16.632 16.655 16.716 16.824 17.003 17.230
   8.50  20.617 20.283 19.950 19.617 19.283 18.950 18.616 18.283 17.950 17.612 17.294 17.025 16.864 16.815 16.826 16.875 16.970 17.116 17.343
   8.75  20.919 20.585 20.252 19.919 19.585 19.252 18.919 18.585 18.252 17.912 17.587 17.293 17.086 17.001 16.995 17.034 17.116 17.249 17.458
   9.00  21.218 20.885 20.552 20.218 19.885 19.552 19.218 18.885 18.551 18.211 17.882 17.572 17.324 17.195 17.167 17.194 17.263 17.383 17.576
   9.25  21.517 21.183 20.850 20.517 20.183 19.850 19.516 19.183 18.849 18.516 18.177 17.857 17.578 17.401 17.343 17.355 17.413 17.519 17.677
   9.50  21.813 21.480 21.147 20.813 20.480 20.147 19.813 19.480 19.146 18.813 18.473 18.146 17.845 17.624 17.526 17.518 17.564 17.657 17.802
   9.75  22.110 21.776 21.443 21.110 20.776 20.443 20.110 19.776 19.443 19.109 18.768 18.438 18.124 17.864 17.720 17.686 17.717 17.798 17.930
  48.00   3.000  3.333  3.667  4.000  4.333  4.667  5.000  5.333  5.667  6.000  6.333  6.667  7.000  7.333  7.667  8.000  8.333  8.667  9.000
  -6.00   1.273  1.984  2.722  3.478  4.248  5.035  5.833  6.635  7.437  8.238  9.039  9.839 10.639 11.438 12.234 13.024 13.800 14.555 15.281
  -5.75   1.330  2.025  2.755  3.505  4.271  5.052  5.848  6.649  7.451  8.251  9.051  9.851 10.651 11.449 12.245 13.034 13.810 14.566 15.294
  -5.50   1.396  2.072  2.791  3.535  4.295  5.071  5.863  6.663  7.464  8.265  9.064  9.864 10.663 11.461 12.256 13.044 13.820 14.576 15.306
  -5.25   1.475  2.124  2.830  3.566  4.321  5.091  5.879  6.677  7.478  8.279  9.078  9.877 10.675 11.472 12.267 13.055 13.831 14.587 15.317
  -5.00   1.573  2.184  2.874  3.600  4.348  5.113  5.896  6.692  7.493  8.292  9.091  9.890 10.687 11.484 12.278 13.066 13.841 14.596 15.327
  -4.75   1.699  2.254  2.922  3.637  4.378  5.137  5.915  6.708  7.507  8.307  9.105  9.903 10.700 11.496 12.290 13.077 13.851 14.607 15.338
  -4.50   1.865  2.338  2.976  3.678  4.410  5.163  5.935  6.724  7.522  8.321  9.119  9.917 10.713 11.509 12.301 13.088 13.862 14.617 15.348
  -4.25   2.080  2.444  3.039  3.722  4.445  5.192  5.957  6.741  7.537  8.336  9.134  9.931 10.727 11.522 12.313 13.099 13.873 14.627 15.358
  -4.00   2.350  2.582  3.114  3.773  4.483  5.222  5.981  6.760  7.553  8.351  9.149  9.945 10.741 11.535 12.326 13.111 13.884 14.637 15.368
  -3.75   2.670  2.762  3.204  3.830  4.525  5.255  6.007  6.780  7.570  8.366  9.164  9.960 10.755 11.548 12.338 13.123 13.895 14.648 15.378
  -3.50   3.029  2.993  3.320  3.896  4.572  5.291  6.035  6.801  7.587  8.382  9.179  9.974 10.769 11.562 12.351 13.135 13.906 14.659 15.388
  -3.25   3.410  3.274  3.470  3.975  4.624  5.330  6.066  6.825  7.606  8.398  9.194  9.990 10.784 11.576 12.365 13.147 13.918 14.670 15.399
  -3.00   3.796  3.598  3.664  4.073  4.684  5.373  6.100  6.851  7.625  8.415  9.210 10.005 10.799 11.590 12.378 13.160 13.930 14.681 15.409
  -2.75   4.173  3.950  3.906  4.198  4.754  5.422  6.137  6.880  7.647  8.433  9.227 10.021 10.814 11.605 12.392 13.173 13.942 14.693 15.420
  -2.50   4.529  4.313  4.193  4.361  4.839  5.477  6.177  6.911  7.671  8.452  9.244 10.037 10.830 11.620 12.406 13.187 13.955 14.705 15.431
  -2.25   4.852  4.673  4.513  4.567  4.945  5.540  6.222  6.945  7.696  8.472  9.261 10.054 10.846 11.635 12.421 13.200 13.968 14.717 15.443
  -2.00   5.134  5.014  4.851  4.817  5.081  5.615  6.273  6.983  7.725  8.493  9.280 10.071 10.862 11.651 12.436 13.215 13.981 14.729 15.454
  -1.75   5.386  5.327  5.191  5.103  5.255  5.706  6.330  7.025  7.757  8.517  9.299 10.089 10.879 11.667 12.451 13.229 13.995 14.742 15.466
  -1.50   5.627  5.606  5.519  5.414  5.470  5.821  6.397  7.072  7.791  8.543  9.319 10.107 10.896 11.684 12.467 13.244 14.009 14.755 15.478
  -1.25   5.870  5.863  5.823  5.732  5.722  5.967  6.477  7.124  7.830  8.571  9.341 10.126 10.914 11.701 12.484 13.259 14.023 14.769 15.491
  -1.00   6.120  6.116  6.103  6.046  6.002  6.150  6.575  7.185  7.873  8.603  9.364 10.145 10.932 11.718 12.500 13.275 14.038 14.783 15.504
  -0.75   6.376  6.372  6.368  6.344  6.299  6.369  6.700  7.256  7.922  8.638  9.390 10.166 10.951 11.736 12.517 13.292 14.053 14.797 15.517
  -0.50   6.641  6.634  6.632  6.626  6.598  6.620  6.855  7.342  7.977  8.678  9.418 10.188 10.971 11.755 12.535 13.308 14.069 14.811 15.531
  -0.25   6.913  6.902  6.900  6.901  6.892  6.893  7.045  7.449  8.042  8.722  9.450 10.212 10.991 11.774 12.553 13.325 14.085 14.826 15.545
   0.00   7.198  7.178  7.174  7.176  7.177  7.178  7.266  7.582  8.118  8.773  9.486 10.238 11.013 11.794 12.572 13.343 14.102 14.842 15.559
   0.25   7.496  7.462  7.455  7.455  7.460  7.466  7.515  7.746  8.211  8.832  9.527 10.267 11.035 11.814 12.591 13.361 14.119 14.858 15.574
   0.50   7.811  7.755  7.741  7.740  7.744  7.754  7.785  7.941  8.326  8.901  9.573 10.299 11.060 11.835 12.611 13.380 14.137 14.874 15.589
   0.75   8.145  8.057  8.034  8.030  8.033  8.043  8.066  8.167  8.469  8.983  9.626 10.335 11.086 11.858 12.632 13.399 14.155 14.891 15.605
   1.00   8.502  8.373  8.333  8.325  8.327  8.335  8.355  8.419  8.641  9.085  9.688 10.377 11.115 11.881 12.653 13.419 14.174 14.909 15.621
   1.25   8.880  8.707  8.642  8.625  8.625  8.631  8.648  8.692  8.845  9.210  9.763 10.425 11.148 11.906 12.675 13.440 14.193 14.927 15.638
   1.50   9.277  9.060  8.960  8.931  8.927  8.932  8.945  8.978  9.080  9.363  9.853 10.481 11.185 11.934 12.698 13.462 14.213 14.946 15.655
   1.75   9.689  9.434  9.290  9.243  9.234  9.236  9.247  9.273  9.342  9.548  9.965 10.549 11.228 11.964 12.723 13.484 14.234 14.965 15.673
   2.00  10.112  9.828  9.639  9.563  9.544  9.544  9.552  9.573  9.623  9.766 10.103 10.630 11.279 11.997 12.750 13.507 14.256 14.985 15.691
   2.25  10.541 10.238 10.006  9.893  9.860  9.855  9.861  9.878  9.916 10.015 10.271 10.731 11.340 12.036 12.778 13.532 14.278 15.006 15.711
   2.50  10.976 10.660 10.394 10.237 10.181 10.169 10.173 10.186 10.216 10.289 10.474 10.856 11.414 12.082 12.810 13.558 14.301 15.028 15.730
   2.75  11.415 11.091 10.800 10.596 10.510 10.487 10.487 10.497 10.522 10.577 10.710 11.012 11.506 12.136 12.845 13.586 14.326 15.050 15.751
   3.00  11.856 11.528 11.220 10.975 10.849 10.809 10.803 10.811 10.831 10.875 10.974 11.201 11.621 12.203 12.887 13.616 14.352 15.073 15.772
   3.25  12.298 11.968 11.649 11.374 11.201 11.136 11.122 11.126 11.142 11.178 11.256 11.425 11.765 12.287 12.936 13.650 14.379 15.098 15.795
   3.50  12.742 12.410 12.085 11.787 11.570 11.471 11.444 11.443 11.456 11.485 11.548 11.678 11.943 12.393 12.997 13.689 14.409 15.124 15.818
   3.75  13.186 12.854 12.525 12.213 11.957 11.815 11.769 11.762 11.771 11.795 11.846 11.951 12.157 12.528 13.073 13.735 14.442 15.151 15.842
   4.00  13.631 13.298 12.967 12.646 12.362 12.174 12.099 12.082 12.087 12.107 12.147 12.235 12.399 12.696 13.171 13.790 14.479 15.180 15.868
   4.25  14.075 13.742 13.410 13.083 12.779 12.513 12.400 12.368 12.368 12.383 12.423 12.526 12.661 12.899 13.297 13.860 14.522 15.212 15.895
   4.50  14.518 14.184 13.852 13.522 13.206 12.911 12.753 12.699 12.690 12.701 12.729 12.787 12.935 13.131 13.455 13.950 14.574 15.248 15.923
   4.75  14.959 14.625 14.292 13.961 13.638 13.322 13.119 13.032 13.012 13.018 13.041 13.090 13.215 13.382 13.647 14.066 14.639 15.288 15.954
   5.00  15.397 15.063 14.730 14.398 14.070 13.762 13.498 13.371 13.333 13.333 13.351 13.392 13.472 13.643 13.866 14.213 14.721 15.337 15.988
   5.25  15.831 15.498 15.165 14.832 14.502 14.183 13.890 13.717 13.654 13.644 13.658 13.692 13.761 13.908 14.103 14.391 14.827 15.396 16.026
   5.50  16.261 15.927 15.594 15.261 14.929 14.604 14.292 14.074 13.975 13.952 13.960 13.988 14.047 14.153 14.346 14.593 14.960 15.470 16.070
   5.75  16.683 16.350 16.016 15.683 15.351 15.022 14.697 14.442 14.300 14.256 14.256 14.278 14.328 14.420 14.590 14.808 15.118 15.564 16.123
   6.00  17.097 16.764 16.430 16.097 15.764 15.433 15.111 14.817 14.629 14.556 14.544 14.561 14.602 14.681 14.813 15.027 15.295 15.679 16.187
   6.25  17.500 17.167 16.834 16.500 16.167 15.835 15.508 15.196 14.965 14.852 14.825 14.834 14.867 14.934 15.051 15.243 15.481 15.812 16.266
   6.50  17.891 17.558 17.225 16.891 16.558 16.225 15.896 15.571 15.305 15.148 15.096 15.096 15.121 15.178 15.279 15.434 15.667 15.958 16.359
   6.75  18.269 17.935 17.602 17.269 16.935 16.602 16.271 15.939 15.648 15.445 15.360 15.346 15.364 15.410 15.496 15.635 15.847 16.109 16.464
   7.00  18.632 18.299 17.965 17.632 17.298 16.965 16.633 16.305 15.989 15.745 15.619 15.585 15.594 15.631 15.704 15.826 16.020 16.259 16.578
   7.25  18.981 18.648 18.314 17.981 17.648 17.314 16.981 16.651 16.324 16.049 15.876 15.815 15.813 15.840 15.901 16.008 16.168 16.404 16.695
   7.50  19.317 18.984 18.651 18.317 17.984 17.651 17.318 16.986 16.653 16.355 16.137 16.040 16.021 16.040 16.090 16.183 16.327 16.545 16.813
   7.75  19.643 19.310 18.976 18.643 18.310 17.976 17.643 17.310 16.974 16.661 16.406 16.264 16.223 16.232 16.272 16.352 16.481 16.682 16.931
   8.00  19.960 19.627 19.293 18.960 18.627 18.293 17.960 17.627 17.289 16.967 16.682 16.494 16.423 16.418 16.449 16.516 16.631 16.798 17.047
   8.25  20.270 19.937 19.604 19.270 18.937 18.604 18.270 17.937 17.605 17.271 16.967 16.735 16.624 16.601 16.622 16.678 16.780 16.933 17.163
   8.50  20.576 20.243 19.909 19.576 19.242 18.909 18.576 18.242 17.909 17.572 17.256 16.989 16.832 16.783 16.793 16.838 16.927 17.067 17.280
   8.75  20.878 20.544 20.211 19.878 19.544 19.211 18.878 18.544 18.211 17.872 17.548 17.256 17.052 16.969 16.963 16.999 17.075 17.202 17.398
   9.00  21.177 20.844 20.510 20.177 19.844 19.510 19.177 18.843 18.510 18.170 17.842 17.533 17.288 17.163 17.135 17.159 17.224 17.337 17.502
   9.25  21.475 21.141 20.808 20.475 20.141 19.808 19.475 19.141 18.808 18.474 18.137 17.817 17.540 17.368 17.311 17.321 17.374 17.475 17.626
   9.50  21.771 21.438 21.105 20.771 20.438 20.105 19.771 19.438 19.104 18.771 18.432 18.106 17.807 17.589 17.493 17.485 17.527 17.614 17.753
   9.75  22.067 21.734 21.401 21.067 20.734 20.401 20.067 19.734 19.400 19.067 18.727 18.397 18.084 17.827 17.686 17.653 17.682 17.757 17.882
  60.00   3.000  3.333  3.667  4.000  4.333  4.667  5.000  5.333  5.667  6.000  6.333  6.667  7.000  7.333  7.667  8.000  8.333  8.667  9.000
  -6.00   1.156  1.864  2.601  3.356  4.124  4.906  5.702  6.506  7.309  8.112  8.913  9.714 10.514 11.313 12.109 12.898 13.674 14.428 15.154
  -5.75   1.215  1.907  2.635  3.384  4.147  4.924  5.717  6.519  7.322  8.125  8.926  9.726 10.526 11.324 12.120 12.908 13.684 14.439 15.167
  -5.50   1.283  1.954  2.671  3.413  4.172  4.944  5.733  6.533  7.335  8.138  8.939  9.739 10.538 11.336 12.131 12.919 13.694 14.450 15.179
  -5.25   1.366  2.008  2.711  3.445  4.198  4.966  5.749  6.547  7.349  8.151  8.952  9.751 10.550 11.347 12.142 12.929 13.704 14.460 15.190
  -5.00   1.469  2.070  2.755  3.480  4.227  4.989  5.767  6.561  7.363  8.164  8.965  9.764 10.562 11.359 12.153 12.940 13.715 14.470 15.200
  -4.75   1.602  2.142  2.805  3.517  4.257  5.014  5.787  6.577  7.377  8.178  8.978  9.777 10.575 11.371 12.164 12.951 13.725 14.480 15.210
  -4.50   1.778  2.231  2.861  3.559  4.290  5.041  5.808  6.594  7.391  8.192  8.992  9.791 10.588 11.384 12.176 12.962 13.736 14.490 15.220
  -4.25   2.005  2.343  2.926  3.604  4.325  5.070  5.831  6.611  7.406  8.206  9.006  9.804 10.601 11.396 12.188 12.973 13.746 14.500 15.230
  -4.00   2.287  2.489  3.003  3.656  4.364  5.101  5.857  6.631  7.422  8.221  9.020  9.818 10.615 11.409 12.200 12.985 13.757 14.511 15.240
  -3.75   2.619  2.679  3.098  3.715  4.407  5.134  5.884  6.652  7.438  8.236  9.035  9.833 10.629 11.422 12.213 12.997 13.769 14.521 15.251
  -3.50   2.986  2.921  3.221  3.783  4.454  5.171  5.913  6.675  7.456  8.251  9.049  9.847 10.643 11.436 12.226 13.009 13.780 14.532 15.261
  -3.25   3.374  3.214  3.380  3.866  4.508  5.211  5.945  6.700  7.475  8.267  9.065  9.862 10.657 11.450 12.239 13.021 13.792 14.543 15.271
  -3.00   3.765  3.549  3.584  3.969  4.570  5.255  5.979  6.727  7.496  8.284  9.080  9.877 10.672 11.464 12.252 13.034 13.804 14.554 15.282
  -2.75   4.144  3.909  3.838  4.102  4.643  5.305  6.017  6.757  7.519  8.302  9.096  9.892 10.686 11.478 12.266 13.047 13.816 14.566 15.293
  -2.50   4.501  4.278  4.137  4.274  4.731  5.361  6.058  6.789  7.544  8.321  9.112  9.908 10.702 11.493 12.280 13.060 13.828 14.578 15.304
  -2.25   4.823  4.641  4.467  4.491  4.843  5.426  6.104  6.825  7.571  8.341  9.129  9.924 10.717 11.508 12.295 13.074 13.841 14.590 15.315
  -2.00   5.104  4.984  4.812  4.753  4.988  5.504  6.156  6.863  7.601  8.364  9.147  9.940 10.733 11.523 12.309 13.088 13.855 14.602 15.327
  -1.75   5.355  5.297  5.156  5.050  5.171  5.600  6.215  6.906  7.634  8.389  9.167  9.957 10.749 11.539 12.325 13.102 13.868 14.615 15.338
  -1.50   5.596  5.575  5.486  5.369  5.397  5.721  6.284  6.954  7.670  8.416  9.187  9.975 10.766 11.555 12.340 13.117 13.882 14.628 15.351
  -1.25   5.839  5.832  5.791  5.694  5.661  5.876  6.368  7.008  7.710  8.446  9.210  9.993 10.783 11.572 12.356 13.132 13.896 14.641 15.363
  -1.00   6.088  6.084  6.071  6.010  5.952  6.070  6.471  7.071  7.754  8.479  9.234 10.013 10.801 11.589 12.372 13.148 13.911 14.655 15.376
  -0.75   6.344  6.340  6.336  6.310  6.256  6.300  6.603  7.144  7.804  8.516  9.261 10.034 10.819 11.606 12.389 13.164 13.926 14.669 15.389
  -0.50   6.607  6.602  6.600  6.593  6.559  6.562  6.768  7.234  7.861  8.557  9.292 10.056 10.838 11.624 12.406 13.180 13.941 14.683 15.402
  -0.25   6.881  6.870  6.868  6.867  6.855  6.844  6.968  7.347  7.928  8.603  9.325 10.081 10.858 11.642 12.423 13.197 13.957 14.698 15.416
   0.00   7.165  7.146  7.142  7.143  7.142  7.134  7.200  7.488  8.007  8.656  9.363 10.108 10.879 11.661 12.441 13.214 13.973 14.713 15.430
   0.25   7.462  7.430  7.422  7.422  7.425  7.426  7.459  7.661  8.105  8.716  9.405 10.138 10.902 11.681 12.460 13.232 13.990 14.729 15.445
   0.50   7.775  7.720  7.709  7.707  7.710  7.716  7.736  7.866  8.226  8.787  9.453 10.172 10.927 11.702 12.479 13.250 14.007 14.745 15.460
   0.75   8.107  8.023  8.001  7.997  7.999  8.006  8.022  8.102  8.377  8.874  9.509 10.210 10.954 11.723 12.499 13.268 14.025 14.762 15.475
   1.00   8.461  8.338  8.300  8.292  8.293  8.299  8.314  8.363  8.558  8.980  9.573 10.254 10.984 11.747 12.519 13.288 14.043 14.779 15.491
   1.25   8.837  8.669  8.608  8.592  8.591  8.596  8.609  8.643  8.772  9.112  9.650 10.304 11.019 11.772 12.541 13.308 14.062 14.797 15.508
   1.50   9.232  9.020  8.924  8.898  8.894  8.897  8.907  8.933  9.016  9.273  9.745 10.363 11.058 11.800 12.564 13.328 14.081 14.815 15.525
   1.75   9.642  9.391  9.254  9.209  9.200  9.201  9.210  9.230  9.286  9.466  9.861 10.433 11.104 11.831 12.588 13.350 14.102 14.834 15.542
   2.00  10.064  9.783  9.600  9.528  9.510  9.509  9.516  9.532  9.572  9.693 10.006 10.518 11.157 11.866 12.614 13.372 14.122 14.853 15.560
   2.25  10.492 10.191  9.965  9.857  9.825  9.820  9.825  9.838  9.869  9.951 10.182 10.623 11.220 11.906 12.642 13.396 14.144 14.873 15.579
   2.50  10.927 10.612 10.350 10.197 10.146 10.134 10.136 10.147 10.171 10.231 10.393 10.754 11.298 11.954 12.674 13.421 14.166 14.894 15.598
   2.75  11.364 11.042 10.753 10.555 10.473 10.452 10.450 10.458 10.478 10.524 10.637 10.915 11.393 12.012 12.711 13.449 14.190 14.916 15.618
   3.00  11.804 11.477 11.171 10.932 10.810 10.773 10.767 10.772 10.788 10.824 10.907 11.112 11.513 12.082 12.754 13.479 14.215 14.938 15.639
   3.25  12.246 11.917 11.599 11.327 11.160 11.098 11.085 11.088 11.101 11.130 11.194 11.343 11.663 12.169 12.806 13.513 14.242 14.962 15.660
   3.50  12.689 12.358 12.034 11.738 11.525 11.431 11.406 11.405 11.415 11.439 11.490 11.603 11.847 12.280 12.869 13.552 14.271 14.987 15.683
   3.75  13.133 12.800 12.472 12.161 11.910 11.774 11.730 11.723 11.730 11.749 11.792 11.880 12.066 12.419 12.949 13.599 14.303 15.013 15.706
   4.00  13.576 13.243 12.913 12.592 12.311 12.130 12.058 12.042 12.046 12.061 12.089 12.169 12.314 12.593 13.051 13.656 14.339 15.041 15.731
   4.25  14.019 13.686 13.354 13.028 12.726 12.467 12.359 12.329 12.327 12.339 12.368 12.463 12.581 12.801 13.181 13.729 14.382 15.072 15.756
   4.50  14.460 14.127 13.794 13.465 13.151 12.888 12.709 12.657 12.649 12.657 12.680 12.729 12.859 13.038 13.345 13.822 14.435 15.107 15.784
   4.75  14.900 14.566 14.233 13.902 13.580 13.291 13.071 12.988 12.969 12.973 12.992 13.033 13.115 13.293 13.541 13.942 14.501 15.147 15.814
   5.00  15.336 15.003 14.670 14.338 14.010 13.704 13.446 13.324 13.288 13.287 13.302 13.336 13.405 13.557 13.765 14.094 14.585 15.194 15.846
   5.25  15.769 15.435 15.102 14.769 14.439 14.121 13.834 13.667 13.607 13.597 13.608 13.637 13.695 13.803 14.005 14.277 14.694 15.254 15.883
   5.50  16.196 15.862 15.529 15.196 14.865 14.540 14.232 14.020 13.926 13.903 13.909 13.933 13.983 14.076 14.252 14.484 14.831 15.329 15.926
   5.75  16.616 16.283 15.950 15.616 15.284 14.956 14.644 14.383 14.247 14.205 14.204 14.222 14.265 14.346 14.482 14.704 14.995 15.424 15.978
   6.00  17.028 16.695 16.362 16.028 15.695 15.365 15.044 14.754 14.572 14.502 14.491 14.504 14.539 14.609 14.729 14.927 15.177 15.542 16.042
   6.25  17.430 17.096 16.763 16.430 16.097 15.765 15.439 15.129 14.904 14.796 14.770 14.777 14.805 14.864 14.969 15.129 15.368 15.679 16.121
   6.50  17.819 17.486 17.152 16.819 16.486 16.153 15.824 15.502 15.240 15.089 15.040 15.038 15.060 15.109 15.199 15.343 15.559 15.830 16.215
   6.75  18.195 17.862 17.528 17.195 16.862 16.529 16.197 15.868 15.580 15.382 15.302 15.288 15.302 15.342 15.419 15.547 15.735 15.986 16.323
   7.00  18.557 18.223 17.890 17.557 17.223 16.890 16.558 16.230 15.918 15.679 15.558 15.526 15.533 15.564 15.629 15.741 15.906 16.141 16.440
   7.25  18.905 18.572 18.238 17.905 17.572 17.238 16.905 16.575 16.252 15.980 15.813 15.755 15.751 15.775 15.829 15.926 16.075 16.292 16.562
   7.50  19.241 18.907 18.574 18.241 17.907 17.574 17.241 16.909 16.579 16.283 16.071 15.978 15.960 15.976 16.020 16.103 16.237 16.427 16.685
   7.75  19.566 19.232 18.899 18.566 18.232 17.899 17.566 17.233 16.899 16.588 16.337 16.201 16.162 16.169 16.204 16.274 16.394 16.564 16.807
   8.00  19.882 19.549 19.215 18.882 18.549 18.215 17.882 17.549 17.218 16.892 16.611 16.428 16.360 16.355 16.382 16.441 16.546 16.704 16.929
   8.25  20.192 19.858 19.525 19.192 18.858 18.525 18.192 17.858 17.526 17.195 16.893 16.667 16.560 16.538 16.556 16.605 16.697 16.841 17.050
   8.50  20.497 20.163 19.830 19.497 19.163 18.830 18.497 18.163 17.830 17.495 17.180 16.918 16.767 16.721 16.728 16.768 16.847 16.977 17.157
   8.75  20.798 20.465 20.131 19.798 19.465 19.131 18.798 18.465 18.131 17.794 17.472 17.182 16.985 16.906 16.899 16.930 16.997 17.114 17.281
   9.00  21.097 20.764 20.430 20.097 19.764 19.430 19.097 18.764 18.430 18.098 17.765 17.458 17.218 17.098 17.071 17.092 17.149 17.252 17.406
   9.25  21.394 21.061 20.728 20.394 20.061 19.728 19.394 19.061 18.727 18.394 18.059 17.740 17.468 17.301 17.247 17.255 17.301 17.392 17.533
   9.50  21.691 21.357 21.024 20.691 20.357 20.024 19.690 19.357 19.024 18.690 18.353 18.028 17.732 17.519 17.429 17.420 17.456 17.534 17.663
   9.75  21.986 21.653 21.319 20.986 20.653 20.319 19.986 19.653 19.319 18.986 18.647 18.319 18.007 17.755 17.620 17.588 17.612 17.679 17.794
