 ROSSELAND MASS ABSORPTION COEFFICIENTS [-2.0]
 logT logP  0km/s  1km/s  2km/s  4km/s  8km/s  log Ne   log Na  log rho IPloCM-1
 3.32-2.00 -6.104 -6.098 -6.087 -6.067 -6.040  3.56832 10.54033-13.13389   0.001
 3.32-1.50 -6.139 -6.133 -6.122 -6.102 -6.075  3.96619 11.04139-12.63302   0.001
 3.32-1.00 -6.150 -6.145 -6.133 -6.113 -6.086  4.40518 11.54419-12.13012   0.001
 3.32-0.50 -6.140 -6.134 -6.123 -6.102 -6.073  4.86445 12.05231-11.62178   0.001
 3.32 0.00 -6.114 -6.107 -6.096 -6.074 -6.045  5.32243 12.57380-11.10051   0.002
 3.32 0.50 -6.081 -6.075 -6.064 -6.043 -6.015  5.77327 13.11494-10.55941   0.004
 3.32 1.00 -6.050 -6.045 -6.035 -6.015 -5.990  6.21722 13.66829-10.00595   0.007
 3.32 1.25 -6.034 -6.029 -6.019 -6.002 -5.978  6.43647 13.94330 -9.73092   0.009
 3.32 1.50 -6.017 -6.012 -6.003 -5.986 -5.964  6.65495 14.21643 -9.45780   0.011
 3.32 1.75 -5.997 -5.993 -5.984 -5.968 -5.948  6.87324 14.48542 -9.18875   0.014
 3.32 2.00 -5.975 -5.971 -5.963 -5.948 -5.928  7.09061 14.75113 -8.92300   0.018
 3.32 2.25 -5.950 -5.946 -5.938 -5.924 -5.905  7.30299 15.01336 -8.66080   0.023
 3.32 2.50 -5.922 -5.919 -5.912 -5.898 -5.881  7.50947 15.27300 -8.40121   0.030
 3.32 2.75 -5.893 -5.889 -5.883 -5.871 -5.854  7.70402 15.53044 -8.14379   0.037
 3.32 3.00 -5.862 -5.859 -5.853 -5.842 -5.826  7.88880 15.78618 -7.88807   0.046
 3.32 3.20 -5.835 -5.832 -5.827 -5.817 -5.803  8.02842 15.98972 -7.68455   0.054
 3.32 3.40 -5.806 -5.804 -5.799 -5.790 -5.777  8.16355 16.19260 -7.48168   0.063
 3.32 3.60 -5.775 -5.773 -5.769 -5.761 -5.749  8.29373 16.39489 -7.27943   0.073
 3.32 3.80 -5.742 -5.740 -5.737 -5.730 -5.719  8.42146 16.59677 -7.07760   0.085
 3.32 4.00 -5.705 -5.704 -5.701 -5.695 -5.685  8.54802 16.79824 -6.87615   0.098
 3.32 4.20 -5.670 -5.668 -5.666 -5.660 -5.650  8.67371 16.99933 -6.67499   0.113
 3.32 4.40 -5.630 -5.628 -5.626 -5.620 -5.610  8.79940 17.20022 -6.47405   0.130
 3.32 4.60 -5.586 -5.584 -5.581 -5.576 -5.566  8.92604 17.40096 -6.27332   0.151
 3.32 4.80 -5.537 -5.535 -5.533 -5.527 -5.517  9.05450 17.60159 -6.07272   0.175
 3.32 5.00 -5.482 -5.481 -5.478 -5.472 -5.462  9.18412 17.80209 -5.87225   0.203
 3.32 5.20 -5.421 -5.420 -5.417 -5.412 -5.402  9.31565 18.00238 -5.67186   0.236
 3.32 5.40 -5.353 -5.352 -5.349 -5.343 -5.334  9.44719 18.20264 -5.47154   0.275
 3.32 5.60 -5.275 -5.274 -5.271 -5.265 -5.256  9.57818 18.40289 -5.27130   0.320
 3.32 5.80 -5.184 -5.183 -5.180 -5.175 -5.166  9.70746 18.60312 -5.07111   0.372
 3.32 6.00 -5.076 -5.075 -5.072 -5.067 -5.059  9.83518 18.80332 -4.87096   0.431
 3.32 6.25 -4.910 -4.908 -4.906 -4.901 -4.894  9.98928 19.05350 -4.62080   0.515
 3.32 6.50 -4.696 -4.695 -4.693 -4.689 -4.682 10.13862 19.30363 -4.37069   0.611
 3.32 6.75 -4.418 -4.418 -4.416 -4.413 -4.408 10.28270 19.55368 -4.12066   0.721
 3.32 7.00 -4.224 -4.223 -4.222 -4.219 -4.215 10.42275 19.80373 -3.87063   0.847
 3.32 7.25 -4.105 -4.104 -4.103 -4.101 -4.097 10.55931 20.05379 -3.62057   0.991
 3.32 7.50 -3.984 -3.983 -3.982 -3.979 -3.976 10.69311 20.30384 -3.37049   1.156
 3.32 7.75 -3.861 -3.860 -3.859 -3.857 -3.854 10.82487 20.55387 -3.12040   1.345
 3.32 8.00 -3.738 -3.738 -3.737 -3.735 -3.732 10.95434 20.80387 -2.87031   1.562
 3.34-2.00 -5.949 -5.943 -5.931 -5.911 -5.884  3.82053 10.51996-13.15428   0.001
 3.34-1.50 -6.006 -6.000 -5.989 -5.968 -5.940  4.15746 11.02036-12.65404   0.001
 3.34-1.00 -6.046 -6.040 -6.028 -6.006 -5.978  4.52179 11.52114-12.15311   0.001
 3.34-0.50 -6.053 -6.047 -6.035 -6.013 -5.984  4.92886 12.02366-11.65033   0.001
 3.34 0.00 -6.023 -6.017 -6.004 -5.982 -5.952  5.37328 12.53199-11.14231   0.002
 3.34 0.50 -5.971 -5.965 -5.953 -5.931 -5.903  5.83296 13.05269-10.62160   0.004
 3.34 1.00 -5.921 -5.915 -5.905 -5.885 -5.860  6.29070 13.59329-10.08092   0.007
 3.34 1.25 -5.900 -5.894 -5.884 -5.866 -5.842  6.51606 13.87002 -9.80430   0.009
 3.34 1.50 -5.880 -5.875 -5.865 -5.848 -5.825  6.73870 14.14675 -9.52768   0.012
 3.34 1.75 -5.859 -5.854 -5.845 -5.828 -5.807  6.95763 14.42190 -9.25257   0.016
 3.34 2.00 -5.837 -5.832 -5.823 -5.807 -5.786  7.17435 14.69522 -8.97922   0.020
 3.34 2.25 -5.811 -5.806 -5.798 -5.782 -5.762  7.38982 14.96434 -8.71000   0.025
 3.34 2.50 -5.781 -5.777 -5.769 -5.754 -5.734  7.60315 15.23019 -8.44406   0.032
 3.34 2.75 -5.746 -5.742 -5.735 -5.721 -5.702  7.81390 15.49267 -8.18168   0.041
 3.34 3.00 -5.708 -5.705 -5.698 -5.685 -5.668  8.02036 15.75251 -7.92191   0.052
 3.34 3.20 -5.676 -5.673 -5.667 -5.655 -5.639  8.17828 15.95863 -7.71572   0.062
 3.34 3.40 -5.643 -5.640 -5.635 -5.624 -5.609  8.33051 16.16366 -7.51063   0.074
 3.34 3.60 -5.609 -5.607 -5.602 -5.593 -5.579  8.47606 16.36765 -7.30658   0.088
 3.34 3.80 -5.575 -5.573 -5.569 -5.561 -5.548  8.61556 16.57094 -7.10328   0.104
 3.34 4.00 -5.539 -5.537 -5.534 -5.528 -5.517  8.75020 16.77357 -6.90067   0.121
 3.34 4.20 -5.508 -5.506 -5.503 -5.497 -5.486  8.87995 16.97567 -6.69864   0.140
 3.34 4.40 -5.474 -5.473 -5.470 -5.464 -5.453  9.00767 17.17737 -6.49699   0.162
 3.34 4.60 -5.439 -5.438 -5.435 -5.428 -5.418  9.13321 17.37867 -6.29571   0.187
 3.34 4.80 -5.401 -5.400 -5.397 -5.391 -5.381  9.25806 17.57972 -6.09465   0.216
 3.34 5.00 -5.361 -5.359 -5.356 -5.350 -5.340  9.38292 17.78053 -5.89381   0.250
 3.34 5.20 -5.317 -5.315 -5.313 -5.307 -5.297  9.50892 17.98119 -5.69313   0.289
 3.34 5.40 -5.269 -5.267 -5.265 -5.259 -5.249  9.63571 18.18172 -5.49257   0.335
 3.34 5.60 -5.216 -5.215 -5.212 -5.207 -5.197  9.76384 18.38215 -5.29211   0.388
 3.34 5.80 -5.160 -5.158 -5.156 -5.150 -5.141  9.89272 18.58250 -5.09173   0.449
 3.34 6.00 -5.099 -5.097 -5.095 -5.089 -5.080 10.02160 18.78276 -4.89144   0.521
 3.34 6.25 -5.017 -5.016 -5.013 -5.008 -4.999 10.18104 19.03292 -4.64122   0.626
 3.34 6.50 -4.931 -4.930 -4.928 -4.923 -4.915 10.33846 19.28308 -4.39105   0.751
 3.34 6.75 -4.843 -4.842 -4.839 -4.835 -4.827 10.49085 19.53328 -4.14089   0.895
 3.34 7.00 -4.753 -4.752 -4.750 -4.746 -4.739 10.63899 19.78348 -3.89076   1.061
 3.34 7.25 -4.664 -4.663 -4.661 -4.657 -4.650 10.78226 20.03350 -3.64074   1.252
 3.34 7.50 -4.575 -4.574 -4.572 -4.568 -4.562 10.92169 20.28353 -3.39073   1.470
 3.34 7.75 -4.487 -4.486 -4.484 -4.481 -4.476 11.05798 20.53359 -3.14061   1.720
 3.34 8.00 -4.400 -4.399 -4.398 -4.394 -4.390 11.19089 20.78369 -2.89042   2.004
 3.36-2.00 -5.790 -5.784 -5.773 -5.751 -5.724  4.08529 10.49996-13.17438   0.001
 3.36-1.50 -5.850 -5.844 -5.832 -5.810 -5.783  4.42045 10.99996-12.67428   0.001
 3.36-1.00 -5.904 -5.897 -5.885 -5.863 -5.835  4.74997 11.50024-12.17399   0.001
 3.36-0.50 -5.936 -5.930 -5.917 -5.895 -5.865  5.09237 12.00130-11.67305   0.002
 3.36 0.00 -5.931 -5.924 -5.912 -5.888 -5.859  5.46879 12.50406-11.17025   0.003
 3.36 0.50 -5.885 -5.878 -5.866 -5.844 -5.816  5.88925 13.01242-10.66194   0.004
 3.36 1.00 -5.819 -5.813 -5.803 -5.783 -5.757  6.34183 13.53339-10.14080   0.007
 3.36 1.25 -5.786 -5.780 -5.770 -5.751 -5.727  6.57247 13.80201 -9.87221   0.010
 3.36 1.50 -5.754 -5.748 -5.738 -5.720 -5.696  6.80312 14.07445 -9.59981   0.013
 3.36 1.75 -5.723 -5.717 -5.707 -5.689 -5.666  7.03067 14.35116 -9.32312   0.017
 3.36 2.00 -5.692 -5.686 -5.677 -5.659 -5.636  7.25527 14.62788 -9.04643   0.021
 3.36 2.25 -5.660 -5.655 -5.645 -5.628 -5.605  7.47479 14.90292 -8.77136   0.027
 3.36 2.50 -5.626 -5.621 -5.612 -5.595 -5.573  7.69082 15.17609 -8.49812   0.035
 3.36 2.75 -5.588 -5.584 -5.576 -5.560 -5.539  7.90397 15.44513 -8.22910   0.045
 3.36 3.00 -5.547 -5.543 -5.536 -5.522 -5.502  8.11428 15.71088 -7.96337   0.057
 3.36 3.20 -5.511 -5.507 -5.501 -5.488 -5.470  8.28121 15.92086 -7.75335   0.069
 3.36 3.40 -5.473 -5.470 -5.464 -5.452 -5.436  8.44567 16.12919 -7.54498   0.083
 3.36 3.60 -5.433 -5.431 -5.425 -5.416 -5.400  8.60661 16.33597 -7.33820   0.100
 3.36 3.80 -5.393 -5.390 -5.386 -5.378 -5.364  8.76210 16.54158 -7.13261   0.119
 3.36 4.00 -5.352 -5.350 -5.347 -5.340 -5.328  8.91259 16.74609 -6.92812   0.142
 3.36 4.20 -5.316 -5.314 -5.311 -5.304 -5.293  9.05580 16.94956 -6.72461   0.167
 3.36 4.40 -5.280 -5.278 -5.275 -5.268 -5.257  9.19402 17.15240 -6.52175   0.196
 3.36 4.60 -5.242 -5.241 -5.238 -5.231 -5.221  9.32683 17.35467 -6.31948   0.229
 3.36 4.80 -5.204 -5.203 -5.200 -5.194 -5.183  9.45613 17.55657 -6.11761   0.266
 3.36 5.00 -5.164 -5.162 -5.160 -5.153 -5.143  9.58297 17.75808 -5.91614   0.308
 3.36 5.20 -5.121 -5.120 -5.117 -5.111 -5.101  9.70738 17.95923 -5.71504   0.355
 3.36 5.40 -5.075 -5.073 -5.070 -5.064 -5.054  9.83178 18.16016 -5.51413   0.410
 3.36 5.60 -5.023 -5.022 -5.019 -5.013 -5.004  9.95629 18.36091 -5.31338   0.473
 3.36 5.80 -4.967 -4.966 -4.963 -4.957 -4.948 10.08113 18.56153 -5.11273   0.546
 3.36 6.00 -4.906 -4.904 -4.902 -4.896 -4.887 10.20629 18.76200 -4.91222   0.630
 3.36 6.25 -4.821 -4.820 -4.818 -4.812 -4.804 10.36437 19.01237 -4.66180   0.756
 3.36 6.50 -4.730 -4.729 -4.727 -4.722 -4.714 10.52244 19.26269 -4.41150   0.907
 3.36 6.75 -4.634 -4.633 -4.631 -4.626 -4.619 10.67895 19.51300 -4.16132   1.086
 3.36 7.00 -4.536 -4.535 -4.533 -4.528 -4.522 10.83359 19.76328 -3.91116   1.298
 3.36 7.25 -4.437 -4.436 -4.434 -4.430 -4.425 10.98376 20.01334 -3.66099   1.543
 3.36 7.50 -4.340 -4.339 -4.338 -4.334 -4.329 11.13001 20.26340 -3.41083   1.825
 3.36 7.75 -4.246 -4.245 -4.244 -4.240 -4.236 11.27197 20.51351 -3.16078   2.149
 3.36 8.00 -4.155 -4.154 -4.152 -4.149 -4.145 11.40976 20.76365 -2.91080   2.520
 3.38-2.00 -5.654 -5.647 -5.636 -5.614 -5.587  4.28937 10.47986-13.19443   0.001
 3.38-1.50 -5.702 -5.696 -5.684 -5.662 -5.635  4.66153 10.97987-12.69443   0.001
 3.38-1.00 -5.754 -5.747 -5.735 -5.712 -5.684  5.00732 11.48001-12.19430   0.002
 3.38-0.50 -5.796 -5.789 -5.776 -5.753 -5.724  5.33766 11.98028-11.69400   0.002
 3.38 0.00 -5.811 -5.804 -5.791 -5.768 -5.739  5.66913 12.48130-11.19301   0.003
 3.38 0.50 -5.788 -5.782 -5.770 -5.747 -5.719  6.02202 12.98430-10.68994   0.005
 3.38 1.00 -5.732 -5.726 -5.715 -5.694 -5.668  6.41614 13.49318-10.18118   0.008
 3.38 1.25 -5.694 -5.688 -5.677 -5.657 -5.633  6.63122 13.75227 -9.92208   0.010
 3.38 1.50 -5.652 -5.646 -5.635 -5.616 -5.591  6.85370 14.01536 -9.65896   0.013
 3.38 1.75 -5.606 -5.601 -5.590 -5.571 -5.547  7.08368 14.28468 -9.38962   0.017
 3.38 2.00 -5.560 -5.555 -5.544 -5.525 -5.501  7.31366 14.55763 -9.11668   0.022
 3.38 2.25 -5.514 -5.509 -5.499 -5.480 -5.456  7.54198 14.83445 -8.83994   0.029
 3.38 2.50 -5.469 -5.463 -5.454 -5.436 -5.413  7.76819 15.11126 -8.56320   0.037
 3.38 2.75 -5.423 -5.418 -5.409 -5.393 -5.371  7.98821 15.38608 -8.28832   0.048
 3.38 3.00 -5.376 -5.372 -5.364 -5.350 -5.329  8.20385 15.65877 -8.01547   0.061
 3.38 3.20 -5.337 -5.334 -5.327 -5.313 -5.294  8.37324 15.87386 -7.80042   0.074
 3.38 3.40 -5.297 -5.294 -5.288 -5.276 -5.259  8.54045 16.08685 -7.58745   0.091
 3.38 3.60 -5.255 -5.252 -5.247 -5.236 -5.221  8.70605 16.29765 -7.37661   0.110
 3.38 3.80 -5.210 -5.208 -5.203 -5.194 -5.181  8.86977 16.50660 -7.16757   0.132
 3.38 4.00 -5.164 -5.162 -5.158 -5.151 -5.138  9.03100 16.71391 -6.96019   0.159
 3.38 4.20 -5.121 -5.119 -5.115 -5.108 -5.097  9.18802 16.91977 -6.75443   0.191
 3.38 4.40 -5.076 -5.074 -5.071 -5.064 -5.053  9.34056 17.12458 -6.54969   0.227
 3.38 4.60 -5.032 -5.030 -5.027 -5.020 -5.010  9.48751 17.32842 -6.34584   0.270
 3.38 4.80 -4.987 -4.986 -4.983 -4.976 -4.966  9.62858 17.53157 -6.14262   0.317
 3.38 5.00 -4.942 -4.940 -4.937 -4.931 -4.921  9.76477 17.73408 -5.94006   0.371
 3.38 5.20 -4.896 -4.894 -4.891 -4.885 -4.875  9.89577 17.93605 -5.73818   0.431
 3.38 5.40 -4.847 -4.845 -4.843 -4.837 -4.827 10.02400 18.13764 -5.53667   0.499
 3.38 5.60 -4.795 -4.793 -4.790 -4.785 -4.775 10.14913 18.33888 -5.33547   0.577
 3.38 5.80 -4.738 -4.737 -4.734 -4.729 -4.720 10.27305 18.53988 -5.13448   0.665
 3.38 6.00 -4.678 -4.676 -4.674 -4.668 -4.660 10.39672 18.74068 -4.93367   0.767
 3.38 6.25 -4.595 -4.594 -4.591 -4.586 -4.578 10.55112 18.99146 -4.68288   0.916
 3.38 6.50 -4.505 -4.504 -4.502 -4.497 -4.490 10.70552 19.24205 -4.43227   1.094
 3.38 6.75 -4.409 -4.408 -4.406 -4.402 -4.395 10.86086 19.49247 -4.18179   1.308
 3.38 7.00 -4.308 -4.307 -4.306 -4.302 -4.296 11.01620 19.74280 -3.93144   1.565
 3.38 7.25 -4.206 -4.205 -4.203 -4.200 -4.194 11.16970 19.99308 -3.68127   1.867
 3.38 7.50 -4.104 -4.103 -4.102 -4.098 -4.093 11.32118 20.24329 -3.43109   2.223
 3.38 7.75 -4.005 -4.004 -4.002 -3.999 -3.995 11.46854 20.49343 -3.18090   2.634
 3.38 8.00 -3.909 -3.908 -3.907 -3.904 -3.900 11.61247 20.74351 -2.93070   3.109
 3.40-2.00 -5.549 -5.542 -5.530 -5.509 -5.482  4.41296 10.45984-13.21439   0.001
 3.40-1.50 -5.580 -5.573 -5.561 -5.539 -5.512  4.83078 10.95985-12.71444   0.001
 3.40-1.00 -5.618 -5.611 -5.599 -5.576 -5.549  5.21958 11.46000-12.21439   0.002
 3.40-0.50 -5.656 -5.649 -5.636 -5.613 -5.585  5.57830 11.96000-11.71422   0.003
 3.40 0.00 -5.678 -5.671 -5.658 -5.635 -5.606  5.91482 12.46045-11.21389   0.004
 3.40 0.50 -5.671 -5.664 -5.652 -5.629 -5.601  6.24279 12.96147-10.71287   0.006
 3.40 1.00 -5.629 -5.623 -5.611 -5.590 -5.564  6.58149 13.46494-10.20943   0.009
 3.40 1.25 -5.596 -5.590 -5.578 -5.558 -5.532  6.76223 13.71868 -9.95563   0.011
 3.40 1.50 -5.555 -5.549 -5.537 -5.517 -5.492  6.95260 13.97460 -9.69962   0.014
 3.40 1.75 -5.506 -5.500 -5.488 -5.468 -5.443  7.15693 14.23463 -9.43961   0.018
 3.40 2.00 -5.450 -5.444 -5.434 -5.414 -5.389  7.37125 14.49886 -9.17542   0.023
 3.40 2.25 -5.391 -5.385 -5.375 -5.356 -5.331  7.59763 14.76929 -8.90500   0.030
 3.40 2.50 -5.329 -5.324 -5.314 -5.297 -5.273  7.82439 15.04297 -8.63134   0.039
 3.40 2.75 -5.268 -5.264 -5.255 -5.238 -5.216  8.05134 15.31984 -8.35449   0.050
 3.40 3.00 -5.208 -5.204 -5.197 -5.182 -5.161  8.27830 15.59671 -8.07764   0.065
 3.40 3.20 -5.161 -5.157 -5.150 -5.137 -5.118  8.45454 15.81640 -7.85796   0.080
 3.40 3.40 -5.113 -5.110 -5.104 -5.092 -5.075  8.62776 16.03453 -7.63984   0.098
 3.40 3.60 -5.065 -5.062 -5.057 -5.046 -5.031  8.79775 16.25051 -7.42388   0.119
 3.40 3.80 -5.016 -5.013 -5.009 -5.000 -4.986  8.96484 16.46395 -7.21048   0.144
 3.40 4.00 -4.965 -4.963 -4.959 -4.951 -4.939  9.12937 16.67532 -6.99913   0.174
 3.40 4.20 -4.916 -4.914 -4.910 -4.903 -4.892  9.29224 16.88462 -6.78981   0.210
 3.40 4.40 -4.864 -4.863 -4.859 -4.852 -4.841  9.45241 17.09235 -6.58204   0.253
 3.40 4.60 -4.812 -4.810 -4.807 -4.801 -4.790  9.60970 17.29854 -6.37579   0.303
 3.40 4.80 -4.758 -4.757 -4.754 -4.748 -4.738  9.76306 17.50360 -6.17067   0.361
 3.40 5.00 -4.704 -4.703 -4.700 -4.694 -4.684  9.91233 17.70766 -5.96658   0.429
 3.40 5.20 -4.650 -4.649 -4.646 -4.640 -4.631 10.05533 17.91086 -5.76339   0.506
 3.40 5.40 -4.595 -4.594 -4.591 -4.586 -4.577 10.19363 18.11349 -5.56077   0.593
 3.40 5.60 -4.539 -4.538 -4.535 -4.530 -4.521 10.32682 18.31558 -5.35863   0.692
 3.40 5.80 -4.481 -4.480 -4.477 -4.472 -4.464 10.45623 18.51730 -5.15685   0.803
 3.40 6.00 -4.420 -4.419 -4.416 -4.411 -4.403 10.58274 18.71867 -4.95546   0.929
 3.40 6.25 -4.339 -4.338 -4.336 -4.331 -4.324 10.73739 18.96994 -4.70436   1.110
 3.40 6.50 -4.253 -4.252 -4.250 -4.246 -4.239 10.89087 19.22089 -4.45346   1.324
 3.40 6.75 -4.162 -4.161 -4.159 -4.155 -4.149 11.04356 19.47159 -4.20262   1.579
 3.40 7.00 -4.066 -4.065 -4.063 -4.060 -4.054 11.19618 19.72214 -3.95195   1.882
 3.40 7.25 -3.966 -3.965 -3.964 -3.960 -3.955 11.34879 19.97262 -3.70166   2.243
 3.40 7.50 -3.865 -3.864 -3.863 -3.860 -3.855 11.50133 20.22298 -3.45136   2.673
 3.40 7.75 -3.764 -3.763 -3.762 -3.759 -3.755 11.65144 20.47320 -3.20107   3.177
 3.40 8.00 -3.666 -3.665 -3.664 -3.661 -3.657 11.79989 20.72329 -2.95078   3.770
 3.42-2.00 -5.472 -5.465 -5.454 -5.432 -5.406  4.47159 10.43996-13.23433   0.001
 3.42-1.50 -5.487 -5.480 -5.468 -5.446 -5.419  4.92717 10.93992-12.73448   0.001
 3.42-1.00 -5.509 -5.502 -5.490 -5.467 -5.440  5.35774 11.43996-12.23433   0.002
 3.42-0.50 -5.533 -5.526 -5.513 -5.491 -5.462  5.76118 11.93997-11.73424   0.004
 3.42 0.00 -5.550 -5.543 -5.530 -5.507 -5.478  6.13354 12.44012-11.23418   0.005
 3.42 0.50 -5.545 -5.538 -5.525 -5.503 -5.475  6.47871 12.94052-10.73377   0.008
 3.42 1.00 -5.509 -5.502 -5.490 -5.468 -5.441  6.80828 13.44185-10.23240   0.012
 3.42 1.25 -5.478 -5.471 -5.459 -5.438 -5.411  6.97352 13.69333 -9.98088   0.014
 3.42 1.50 -5.439 -5.433 -5.421 -5.399 -5.373  7.13956 13.94576 -9.72839   0.017
 3.42 1.75 -5.392 -5.385 -5.374 -5.353 -5.327  7.31313 14.20019 -9.47402   0.021
 3.42 2.00 -5.337 -5.331 -5.320 -5.300 -5.274  7.49443 14.45713 -9.21717   0.026
 3.42 2.25 -5.275 -5.269 -5.259 -5.240 -5.215  7.68901 14.71841 -8.95585   0.032
 3.42 2.50 -5.206 -5.201 -5.192 -5.174 -5.150  7.89448 14.98403 -8.69016   0.041
 3.42 2.75 -5.132 -5.128 -5.119 -5.103 -5.081  8.11401 15.25601 -8.41817   0.053
 3.42 3.00 -5.056 -5.052 -5.045 -5.030 -5.010  8.33666 15.53058 -8.14363   0.068
 3.42 3.20 -4.995 -4.991 -4.984 -4.971 -4.953  8.51647 15.75204 -7.92227   0.084
 3.42 3.40 -4.934 -4.930 -4.924 -4.913 -4.896  8.69628 15.97349 -7.70092   0.104
 3.42 3.60 -4.873 -4.870 -4.865 -4.855 -4.840  8.87418 16.19399 -7.48046   0.127
 3.42 3.80 -4.813 -4.810 -4.806 -4.797 -4.783  9.04797 16.41218 -7.26221   0.155
 3.42 4.00 -4.752 -4.750 -4.746 -4.739 -4.727  9.21880 16.62859 -7.04571   0.189
 3.42 4.20 -4.695 -4.693 -4.690 -4.682 -4.671  9.38583 16.84226 -6.83207   0.229
 3.42 4.40 -4.637 -4.635 -4.632 -4.625 -4.615  9.55007 17.05390 -6.62046   0.276
 3.42 4.60 -4.578 -4.577 -4.574 -4.568 -4.558  9.71196 17.26347 -6.41091   0.333
 3.42 4.80 -4.519 -4.518 -4.515 -4.509 -4.500  9.87148 17.47137 -6.20299   0.400
 3.42 5.00 -4.458 -4.457 -4.454 -4.449 -4.440 10.02816 17.67779 -5.99654   0.479
 3.42 5.20 -4.397 -4.396 -4.394 -4.388 -4.379 10.18153 17.88294 -5.79135   0.572
 3.42 5.40 -4.335 -4.334 -4.332 -4.327 -4.318 10.33093 18.08717 -5.58710   0.679
 3.42 5.60 -4.273 -4.272 -4.270 -4.265 -4.257 10.47558 18.29051 -5.38373   0.802
 3.42 5.80 -4.210 -4.209 -4.207 -4.202 -4.195 10.61508 18.49324 -5.18098   0.942
 3.42 6.00 -4.147 -4.146 -4.144 -4.139 -4.132 10.75012 18.69539 -4.97881   1.100
 3.42 6.25 -4.066 -4.065 -4.063 -4.059 -4.052 10.91237 18.94738 -4.72677   1.326
 3.42 6.50 -3.982 -3.982 -3.980 -3.976 -3.970 11.07004 19.19893 -4.47522   1.590
 3.42 6.75 -3.896 -3.895 -3.893 -3.890 -3.884 11.22374 19.45024 -4.22398   1.898
 3.42 7.00 -3.806 -3.805 -3.804 -3.800 -3.795 11.37585 19.70122 -3.97306   2.261
 3.42 7.25 -3.713 -3.712 -3.711 -3.707 -3.703 11.52707 19.95176 -3.72243   2.691
 3.42 7.50 -3.617 -3.616 -3.615 -3.612 -3.608 11.67752 20.20222 -3.47198   3.200
 3.42 7.75 -3.520 -3.519 -3.518 -3.515 -3.511 11.82743 20.45265 -3.22164   3.803
 3.42 8.00 -3.424 -3.423 -3.422 -3.419 -3.415 11.97672 20.70303 -2.97143   4.516
 3.44-2.00 -5.422 -5.416 -5.404 -5.383 -5.358  4.47972 10.41996-13.25438   0.001
 3.44-1.50 -5.421 -5.415 -5.403 -5.381 -5.354  4.96492 10.91991-12.75449   0.001
 3.44-1.00 -5.427 -5.420 -5.408 -5.385 -5.358  5.43201 11.41996-12.25438   0.002
 3.44-0.50 -5.436 -5.429 -5.416 -5.394 -5.366  5.87419 11.91991-11.75424   0.004
 3.44 0.00 -5.440 -5.433 -5.420 -5.397 -5.369  6.28981 12.41996-11.25430   0.006
 3.44 0.50 -5.427 -5.420 -5.407 -5.384 -5.356  6.67523 12.92012-10.75424   0.010
 3.44 1.00 -5.385 -5.379 -5.366 -5.344 -5.316  7.03060 13.42062-10.25360   0.015
 3.44 1.25 -5.352 -5.345 -5.333 -5.311 -5.284  7.19862 13.67121-10.00299   0.018
 3.44 1.50 -5.311 -5.304 -5.292 -5.270 -5.244  7.36455 13.92221 -9.75203   0.022
 3.44 1.75 -5.261 -5.255 -5.243 -5.223 -5.197  7.52892 14.17402 -9.50020   0.027
 3.44 2.00 -5.205 -5.199 -5.188 -5.168 -5.143  7.69329 14.42700 -9.24718   0.032
 3.44 2.25 -5.141 -5.136 -5.126 -5.107 -5.083  7.86272 14.68229 -8.99190   0.039
 3.44 2.50 -5.071 -5.066 -5.057 -5.040 -5.017  8.03783 14.94047 -8.73377   0.047
 3.44 2.75 -4.993 -4.989 -4.981 -4.965 -4.944  8.22494 15.20357 -8.47073   0.059
 3.44 3.00 -4.909 -4.905 -4.898 -4.884 -4.865  8.42259 15.47114 -8.20322   0.074
 3.44 3.20 -4.837 -4.834 -4.828 -4.815 -4.798  8.59183 15.69014 -7.98428   0.090
 3.44 3.40 -4.764 -4.760 -4.755 -4.744 -4.728  8.76420 15.91006 -7.76436   0.109
 3.44 3.60 -4.689 -4.686 -4.681 -4.671 -4.657  8.93988 16.13089 -7.54348   0.134
 3.44 3.80 -4.614 -4.611 -4.607 -4.598 -4.585  9.11651 16.35194 -7.32235   0.164
 3.44 4.00 -4.540 -4.538 -4.534 -4.527 -4.515  9.29314 16.57299 -7.10122   0.201
 3.44 4.20 -4.470 -4.468 -4.465 -4.458 -4.448  9.46619 16.79122 -6.88303   0.245
 3.44 4.40 -4.401 -4.400 -4.397 -4.391 -4.381  9.63665 17.00752 -6.66679   0.299
 3.44 4.60 -4.334 -4.333 -4.330 -4.325 -4.316  9.80398 17.22155 -6.45280   0.362
 3.44 4.80 -4.269 -4.268 -4.265 -4.260 -4.251  9.96795 17.43328 -6.24104   0.437
 3.44 5.00 -4.204 -4.202 -4.200 -4.195 -4.187 10.12905 17.64306 -6.03124   0.526
 3.44 5.20 -4.139 -4.138 -4.136 -4.131 -4.123 10.28786 17.85092 -5.82338   0.631
 3.44 5.40 -4.073 -4.072 -4.070 -4.066 -4.058 10.44369 18.05742 -5.61688   0.755
 3.44 5.60 -4.007 -4.006 -4.004 -4.000 -3.992 10.59650 18.26266 -5.41165   0.900
 3.44 5.80 -3.940 -3.939 -3.937 -3.933 -3.926 10.74562 18.46699 -5.20733   1.069
 3.44 6.00 -3.873 -3.872 -3.870 -3.866 -3.860 10.89087 18.67043 -5.00388   1.264
 3.44 6.25 -3.789 -3.788 -3.787 -3.783 -3.777 11.06514 18.92364 -4.75060   1.545
 3.44 6.50 -3.705 -3.705 -3.703 -3.700 -3.694 11.23274 19.17609 -4.49812   1.874
 3.44 6.75 -3.621 -3.620 -3.619 -3.616 -3.611 11.39342 19.42805 -4.24626   2.255
 3.44 7.00 -3.535 -3.535 -3.533 -3.530 -3.526 11.54962 19.67952 -3.99482   2.699
 3.44 7.25 -3.448 -3.447 -3.446 -3.443 -3.439 11.70208 19.93049 -3.74368   3.217
 3.44 7.50 -3.359 -3.358 -3.357 -3.354 -3.350 11.85248 20.18127 -3.49282   3.825
 3.44 7.75 -3.268 -3.267 -3.266 -3.264 -3.260 12.00173 20.43196 -3.24220   4.542
 3.44 8.00 -3.177 -3.176 -3.175 -3.173 -3.169 12.14953 20.68251 -2.99183   5.385
 3.46-2.00 -5.386 -5.381 -5.371 -5.353 -5.330  4.47349 10.39985-13.27442   0.001
 3.46-1.50 -5.378 -5.373 -5.362 -5.341 -5.317  4.96464 10.89988-12.77443   0.001
 3.46-1.00 -5.371 -5.365 -5.353 -5.331 -5.305  5.45347 11.39985-12.27442   0.002
 3.46-0.50 -5.364 -5.358 -5.345 -5.323 -5.295  5.92916 11.89988-11.77443   0.004
 3.46 0.00 -5.354 -5.347 -5.334 -5.312 -5.284  6.38184 12.39985-11.27433   0.007
 3.46 0.50 -5.329 -5.322 -5.309 -5.286 -5.259  6.80787 12.89993-10.77443   0.011
 3.46 1.00 -5.275 -5.268 -5.255 -5.233 -5.206  7.20466 13.40019-10.27409   0.018
 3.46 1.25 -5.235 -5.228 -5.216 -5.194 -5.167  7.39092 13.65043-10.02381   0.022
 3.46 1.50 -5.186 -5.180 -5.168 -5.147 -5.121  7.57019 13.90081 -9.77340   0.027
 3.46 1.75 -5.130 -5.124 -5.113 -5.092 -5.067  7.74224 14.15160 -9.52265   0.033
 3.46 2.00 -5.066 -5.061 -5.050 -5.031 -5.007  7.91046 14.40295 -9.27140   0.040
 3.46 2.25 -4.995 -4.990 -4.980 -4.962 -4.940  8.07513 14.65521 -9.01916   0.048
 3.46 2.50 -4.917 -4.912 -4.904 -4.887 -4.866  8.23980 14.90886 -8.76548   0.058
 3.46 2.75 -4.832 -4.828 -4.820 -4.805 -4.786  8.40756 15.16536 -8.50894   0.070
 3.46 3.00 -4.741 -4.737 -4.730 -4.717 -4.700  8.57921 15.42521 -8.24903   0.086
 3.46 3.20 -4.663 -4.660 -4.654 -4.642 -4.626  8.72413 15.63709 -8.03711   0.102
 3.46 3.40 -4.583 -4.580 -4.575 -4.564 -4.550  8.87507 15.85179 -7.82240   0.121
 3.46 3.60 -4.501 -4.498 -4.493 -4.484 -4.471  9.03409 16.07050 -7.60370   0.146
 3.46 3.80 -4.416 -4.414 -4.410 -4.402 -4.390  9.19939 16.29112 -7.38312   0.176
 3.46 4.00 -4.331 -4.330 -4.326 -4.319 -4.309  9.36829 16.51175 -7.16254   0.214
 3.46 4.20 -4.250 -4.249 -4.246 -4.239 -4.230  9.54063 16.73232 -6.94197   0.261
 3.46 4.40 -4.171 -4.169 -4.167 -4.161 -4.152  9.71297 16.95277 -6.72144   0.319
 3.46 4.60 -4.094 -4.093 -4.090 -4.085 -4.077  9.88431 17.17181 -6.50237   0.388
 3.46 4.80 -4.020 -4.019 -4.017 -4.012 -4.004 10.05311 17.38796 -6.28629   0.471
 3.46 5.00 -3.948 -3.947 -3.945 -3.940 -3.933 10.21985 17.60206 -6.07227   0.571
 3.46 5.20 -3.878 -3.877 -3.875 -3.871 -3.864 10.38312 17.81359 -5.86072   0.689
 3.46 5.40 -3.810 -3.809 -3.807 -3.803 -3.796 10.54357 18.02328 -5.65100   0.828
 3.46 5.60 -3.742 -3.741 -3.739 -3.735 -3.729 10.70137 18.23113 -5.44313   0.993
 3.46 5.80 -3.673 -3.673 -3.671 -3.667 -3.661 10.85632 18.43761 -5.23665   1.187
 3.46 6.00 -3.605 -3.604 -3.603 -3.599 -3.593 11.00817 18.64286 -5.03142   1.414
 3.46 6.25 -3.519 -3.518 -3.517 -3.514 -3.508 11.19302 18.89804 -4.77635   1.749
 3.46 6.50 -3.433 -3.433 -3.431 -3.428 -3.423 11.37181 19.15198 -4.52245   2.149
 3.46 6.75 -3.348 -3.348 -3.346 -3.343 -3.339 11.54311 19.40488 -4.26946   2.618
 3.46 7.00 -3.264 -3.263 -3.262 -3.259 -3.255 11.70808 19.65706 -4.01719   3.166
 3.46 7.25 -3.179 -3.179 -3.178 -3.175 -3.171 11.86666 19.90863 -3.76553   3.800
 3.46 7.50 -3.095 -3.094 -3.093 -3.091 -3.087 12.02078 20.15987 -3.51428   4.537
 3.46 7.75 -3.010 -3.009 -3.008 -3.006 -3.002 12.17174 20.41091 -3.26329   5.398
 3.46 8.00 -2.925 -2.924 -2.923 -2.921 -2.917 12.31911 20.66172 -3.01260   6.396
 3.48-2.00 -5.325 -5.322 -5.315 -5.302 -5.285  4.52917 10.37967-13.29465   0.001
 3.48-1.50 -5.337 -5.332 -5.324 -5.308 -5.287  4.97690 10.87955-12.79480   0.001
 3.48-1.00 -5.332 -5.326 -5.316 -5.297 -5.274  5.45408 11.37967-12.29465   0.002
 3.48-0.50 -5.317 -5.311 -5.299 -5.279 -5.253  5.94062 11.87955-11.79480   0.004
 3.48 0.00 -5.293 -5.287 -5.274 -5.252 -5.225  6.42128 12.37967-11.29465   0.007
 3.48 0.50 -5.253 -5.247 -5.234 -5.212 -5.185  6.88304 12.87961-10.79480   0.012
 3.48 1.00 -5.186 -5.180 -5.167 -5.145 -5.119  7.31848 13.37967-10.29456   0.020
 3.48 1.25 -5.138 -5.132 -5.120 -5.099 -5.073  7.52570 13.62977-10.04443   0.025
 3.48 1.50 -5.080 -5.074 -5.063 -5.043 -5.017  7.72542 13.87996 -9.79426   0.032
 3.48 1.75 -5.013 -5.007 -4.996 -4.977 -4.953  7.91677 14.13033 -9.54395   0.040
 3.48 2.00 -4.937 -4.931 -4.921 -4.903 -4.881  8.10072 14.38094 -9.29345   0.049
 3.48 2.25 -4.851 -4.847 -4.837 -4.821 -4.800  8.27693 14.63189 -9.04245   0.060
 3.48 2.50 -4.759 -4.755 -4.746 -4.731 -4.712  8.44824 14.88344 -8.79075   0.073
 3.48 2.75 -4.660 -4.656 -4.648 -4.635 -4.617  8.61442 15.13643 -8.53780   0.088
 3.48 3.00 -4.555 -4.552 -4.545 -4.533 -4.517  8.78061 15.39129 -8.28308   0.106
 3.48 3.20 -4.468 -4.465 -4.459 -4.448 -4.434  8.91452 15.59749 -8.07686   0.124
 3.48 3.40 -4.379 -4.377 -4.371 -4.362 -4.349  9.04979 15.80610 -7.86820   0.145
 3.48 3.60 -4.290 -4.287 -4.283 -4.274 -4.263  9.18858 16.01801 -7.65627   0.170
 3.48 3.80 -4.200 -4.198 -4.194 -4.187 -4.176  9.33373 16.23332 -7.44099   0.201
 3.48 4.00 -4.111 -4.109 -4.106 -4.100 -4.091  9.48402 16.45117 -7.22315   0.239
 3.48 4.20 -4.025 -4.023 -4.020 -4.015 -4.006  9.64233 16.67243 -7.00189   0.287
 3.48 4.40 -3.940 -3.938 -3.936 -3.931 -3.923  9.80418 16.89369 -6.78062   0.346
 3.48 4.60 -3.857 -3.856 -3.854 -3.849 -3.842  9.97009 17.11464 -6.55967   0.418
 3.48 4.80 -3.777 -3.776 -3.774 -3.770 -3.763 10.13740 17.33452 -6.33979   0.507
 3.48 5.00 -3.700 -3.699 -3.697 -3.693 -3.686 10.30471 17.55340 -6.12090   0.615
 3.48 5.20 -3.625 -3.624 -3.622 -3.618 -3.612 10.47046 17.76916 -5.90518   0.744
 3.48 5.40 -3.552 -3.551 -3.549 -3.546 -3.540 10.63475 17.98281 -5.69155   0.899
 3.48 5.60 -3.481 -3.480 -3.478 -3.475 -3.470 10.79698 18.19422 -5.48012   1.083
 3.48 5.80 -3.411 -3.410 -3.409 -3.405 -3.400 10.95628 18.40371 -5.27058   1.301
 3.48 6.00 -3.342 -3.341 -3.340 -3.336 -3.331 11.11294 18.61151 -5.06273   1.558
 3.48 6.25 -3.256 -3.255 -3.254 -3.251 -3.246 11.30458 18.86921 -4.80506   1.943
 3.48 6.50 -3.170 -3.169 -3.168 -3.165 -3.161 11.49122 19.12516 -4.54914   2.409
 3.48 6.75 -3.084 -3.084 -3.083 -3.080 -3.076 11.67239 19.37963 -4.29463   2.968
 3.48 7.00 -2.999 -2.999 -2.998 -2.995 -2.992 11.84751 19.63307 -4.04120   3.631
 3.48 7.25 -2.916 -2.915 -2.914 -2.912 -2.908 12.01531 19.88569 -3.78865   4.405
 3.48 7.50 -2.833 -2.833 -2.831 -2.829 -2.826 12.17696 20.13767 -3.53670   5.306
 3.48 7.75 -2.751 -2.751 -2.750 -2.748 -2.745 12.33318 20.38919 -3.28515   6.351
 3.48 8.00 -2.671 -2.670 -2.669 -2.667 -2.664 12.48373 20.64018 -3.03405   7.553
 3.50-2.00 -5.169 -5.167 -5.164 -5.158 -5.150  4.77844 10.35984-13.31435   0.001
 3.50-1.50 -5.234 -5.231 -5.226 -5.216 -5.202  5.12156 10.85992-12.81446   0.002
 3.50-1.00 -5.268 -5.264 -5.257 -5.243 -5.225  5.51561 11.35984-12.31435   0.002
 3.50-0.50 -5.272 -5.268 -5.259 -5.242 -5.220  5.95895 11.85992-11.81446   0.004
 3.50 0.00 -5.249 -5.244 -5.234 -5.214 -5.190  6.43185 12.36003-11.31435   0.007
 3.50 0.50 -5.201 -5.195 -5.184 -5.163 -5.138  6.91100 12.85992-10.81446   0.012
 3.50 1.00 -5.121 -5.115 -5.103 -5.083 -5.058  7.37767 13.36003-10.31426   0.021
 3.50 1.25 -5.066 -5.060 -5.049 -5.029 -5.004  7.60208 13.61003-10.06422   0.027
 3.50 1.50 -4.999 -4.994 -4.983 -4.964 -4.940  7.81994 13.86004 -9.81418   0.034
 3.50 1.75 -4.921 -4.916 -4.906 -4.888 -4.865  8.03068 14.11016 -9.56404   0.043
 3.50 2.00 -4.830 -4.826 -4.816 -4.799 -4.778  8.23401 14.36040 -9.31381   0.055
 3.50 2.25 -4.729 -4.724 -4.715 -4.700 -4.681  8.42918 14.61087 -9.06342   0.069
 3.50 2.50 -4.617 -4.613 -4.605 -4.591 -4.574  8.61679 14.86166 -8.81276   0.086
 3.50 2.75 -4.499 -4.495 -4.488 -4.476 -4.460  8.79627 15.11304 -8.56137   0.106
 3.50 3.00 -4.375 -4.372 -4.366 -4.355 -4.341  8.97030 15.36530 -8.30901   0.129
 3.50 3.20 -4.274 -4.271 -4.266 -4.256 -4.243  9.10475 15.56834 -8.10596   0.151
 3.50 3.40 -4.172 -4.170 -4.165 -4.157 -4.145  9.23920 15.77287 -7.90142   0.176
 3.50 3.60 -4.071 -4.069 -4.065 -4.058 -4.047  9.37381 15.97944 -7.69486   0.205
 3.50 3.80 -3.971 -3.970 -3.966 -3.960 -3.951  9.50917 16.18896 -7.48531   0.240
 3.50 4.00 -3.875 -3.873 -3.870 -3.865 -3.857  9.64532 16.40123 -7.27303   0.281
 3.50 4.20 -3.782 -3.781 -3.779 -3.774 -3.767  9.78716 16.61787 -7.05643   0.331
 3.50 4.40 -3.694 -3.693 -3.691 -3.687 -3.680  9.93318 16.83642 -6.83791   0.392
 3.50 4.60 -3.610 -3.609 -3.607 -3.603 -3.597 10.08463 17.05714 -6.61717   0.466
 3.50 4.80 -3.528 -3.528 -3.526 -3.522 -3.516 10.24060 17.27862 -6.39564   0.558
 3.50 5.00 -3.450 -3.449 -3.447 -3.444 -3.438 10.39950 17.50010 -6.17412   0.670
 3.50 5.20 -3.373 -3.373 -3.371 -3.368 -3.363 10.56155 17.71959 -5.95471   0.807
 3.50 5.40 -3.299 -3.298 -3.297 -3.294 -3.289 10.72359 17.93742 -5.73698   0.973
 3.50 5.60 -3.226 -3.226 -3.224 -3.221 -3.217 10.88533 18.15301 -5.52142   1.172
 3.50 5.80 -3.155 -3.155 -3.153 -3.150 -3.146 11.04602 18.36606 -5.30830   1.411
 3.50 6.00 -3.085 -3.085 -3.083 -3.081 -3.076 11.20575 18.57703 -5.09724   1.696
 3.50 6.25 -2.999 -2.998 -2.997 -2.994 -2.990 11.40179 18.83797 -4.83631   2.125
 3.50 6.50 -2.914 -2.913 -2.912 -2.909 -2.906 11.59406 19.09656 -4.57774   2.651
 3.50 6.75 -2.829 -2.828 -2.827 -2.825 -2.821 11.78162 19.35321 -4.32111   3.290
 3.50 7.00 -2.745 -2.744 -2.743 -2.741 -2.738 11.96407 19.60831 -4.06601   4.060
 3.50 7.25 -2.661 -2.661 -2.660 -2.658 -2.655 12.14057 19.86207 -3.81217   4.975
 3.50 7.50 -2.579 -2.579 -2.578 -2.576 -2.573 12.31091 20.11494 -3.55925   6.052
 3.50 7.75 -2.499 -2.499 -2.498 -2.496 -2.493 12.47442 20.36725 -3.30697   7.305
 3.50 8.00 -2.421 -2.420 -2.419 -2.417 -2.414 12.63134 20.61889 -3.05542   8.752
 3.52-2.00 -4.927 -4.927 -4.926 -4.924 -4.922  5.17955 10.33985-13.33433   0.002
 3.52-1.50 -5.033 -5.032 -5.030 -5.026 -5.021  5.46090 10.83992-12.83446   0.002
 3.52-1.00 -5.117 -5.115 -5.112 -5.105 -5.095  5.76515 11.33985-12.33433   0.003
 3.52-0.50 -5.172 -5.169 -5.164 -5.153 -5.139  6.10619 11.83992-11.83446   0.005
 3.52 0.00 -5.188 -5.184 -5.176 -5.162 -5.144  6.49776 12.33985-11.33432   0.007
 3.52 0.50 -5.156 -5.151 -5.142 -5.126 -5.105  6.93757 12.83992-10.83446   0.012
 3.52 1.00 -5.075 -5.070 -5.060 -5.042 -5.021  7.40432 13.34005-10.33433   0.021
 3.52 1.25 -5.016 -5.011 -5.001 -4.984 -4.962  7.63762 13.59001-10.08424   0.028
 3.52 1.50 -4.943 -4.938 -4.928 -4.911 -4.890  7.87076 13.83998 -9.83416   0.036
 3.52 1.75 -4.856 -4.851 -4.842 -4.826 -4.806  8.09713 14.09009 -9.58415   0.047
 3.52 2.00 -4.754 -4.749 -4.741 -4.725 -4.706  8.31785 14.34025 -9.33414   0.060
 3.52 2.25 -4.637 -4.633 -4.625 -4.611 -4.594  8.53136 14.59042 -9.08395   0.077
 3.52 2.50 -4.508 -4.504 -4.497 -4.484 -4.468  8.73767 14.84067 -8.83357   0.097
 3.52 2.75 -4.369 -4.366 -4.359 -4.348 -4.333  8.93614 15.09131 -8.58294   0.121
 3.52 3.00 -4.224 -4.221 -4.216 -4.206 -4.193  9.12710 15.34242 -8.33189   0.151
 3.52 3.20 -4.106 -4.104 -4.099 -4.090 -4.079  9.27377 15.54387 -8.13046   0.179
 3.52 3.40 -3.989 -3.986 -3.982 -3.975 -3.964  9.41675 15.74610 -7.92823   0.211
 3.52 3.60 -3.872 -3.870 -3.867 -3.860 -3.851  9.55505 15.94940 -7.72494   0.248
 3.52 3.80 -3.759 -3.757 -3.754 -3.749 -3.741  9.69143 16.15460 -7.51975   0.290
 3.52 4.00 -3.649 -3.648 -3.645 -3.641 -3.634  9.82782 16.36173 -7.31265   0.339
 3.52 4.20 -3.545 -3.544 -3.542 -3.538 -3.531  9.96431 16.57225 -7.10211   0.397
 3.52 4.40 -3.447 -3.446 -3.444 -3.440 -3.435 10.10098 16.78562 -6.88871   0.464
 3.52 4.60 -3.355 -3.354 -3.353 -3.349 -3.344 10.23977 17.00300 -6.67133   0.544
 3.52 4.80 -3.270 -3.269 -3.267 -3.264 -3.259 10.38290 17.22278 -6.45156   0.642
 3.52 5.00 -3.189 -3.188 -3.187 -3.184 -3.179 10.52917 17.44326 -6.23107   0.760
 3.52 5.20 -3.113 -3.113 -3.111 -3.108 -3.104 10.67994 17.66423 -6.01009   0.904
 3.52 5.40 -3.040 -3.040 -3.038 -3.036 -3.031 10.83296 17.88519 -5.78910   1.078
 3.52 5.60 -2.970 -2.969 -2.968 -2.965 -2.961 10.98862 18.10493 -5.56937   1.290
 3.52 5.80 -2.901 -2.900 -2.899 -2.896 -2.892 11.14526 18.32193 -5.35239   1.545
 3.52 6.00 -2.832 -2.832 -2.831 -2.828 -2.824 11.30190 18.53694 -5.13739   1.851
 3.52 6.25 -2.748 -2.747 -2.746 -2.744 -2.741 11.49718 18.80200 -4.87227   2.318
 3.52 6.50 -2.664 -2.664 -2.663 -2.660 -2.657 11.69170 19.06409 -4.61013   2.899
 3.52 6.75 -2.581 -2.581 -2.580 -2.577 -2.574 11.88280 19.32356 -4.35065   3.612
 3.52 7.00 -2.498 -2.498 -2.497 -2.495 -2.492 12.07041 19.58092 -4.09329   4.483
 3.52 7.25 -2.417 -2.416 -2.415 -2.413 -2.410 12.25297 19.83639 -3.83777   5.532
 3.52 7.50 -2.336 -2.335 -2.334 -2.332 -2.330 12.43024 20.09061 -3.58353   6.785
 3.52 7.75 -2.257 -2.256 -2.255 -2.253 -2.251 12.60109 20.34403 -3.33016   8.260
 3.52 8.00 -2.179 -2.179 -2.178 -2.176 -2.173 12.76589 20.59649 -3.07779   9.986
 3.54-2.00 -4.640 -4.640 -4.640 -4.639 -4.639  5.62107 10.31994-13.35438   0.003
 3.54-1.50 -4.772 -4.772 -4.771 -4.771 -4.769  5.88144 10.81987-12.85449   0.004
 3.54-1.00 -4.888 -4.888 -4.887 -4.885 -4.882  6.14953 11.31994-12.35438   0.005
 3.54-0.50 -4.984 -4.983 -4.980 -4.976 -4.970  6.43152 11.81987-11.85449   0.007
 3.54 0.00 -5.048 -5.046 -5.042 -5.034 -5.024  6.73687 12.31994-11.35438   0.009
 3.54 0.50 -5.064 -5.061 -5.055 -5.045 -5.031  7.07954 12.81987-10.85449   0.014
 3.54 1.00 -5.016 -5.012 -5.006 -4.993 -4.977  7.47202 13.31994-10.35428   0.022
 3.54 1.25 -4.965 -4.962 -4.955 -4.942 -4.926  7.68732 13.56994-10.10439   0.028
 3.54 1.50 -4.896 -4.893 -4.886 -4.873 -4.856  7.90934 13.81994 -9.85449   0.036
 3.54 1.75 -4.809 -4.805 -4.798 -4.786 -4.770  8.13760 14.07004 -9.60434   0.047
 3.54 2.00 -4.701 -4.698 -4.691 -4.679 -4.663  8.36586 14.32015 -9.35419   0.062
 3.54 2.25 -4.576 -4.572 -4.566 -4.554 -4.539  8.59116 14.57021 -9.10403   0.080
 3.54 2.50 -4.433 -4.430 -4.424 -4.413 -4.399  8.81312 14.82027 -8.85387   0.103
 3.54 2.75 -4.278 -4.275 -4.270 -4.260 -4.247  9.02811 15.07060 -8.60361   0.132
 3.54 3.00 -4.115 -4.112 -4.107 -4.098 -4.087  9.23654 15.32119 -8.35320   0.168
 3.54 3.20 -3.981 -3.978 -3.974 -3.967 -3.956  9.39772 15.52186 -8.15255   0.202
 3.54 3.40 -3.847 -3.845 -3.841 -3.834 -3.825  9.55423 15.72289 -7.95147   0.242
 3.54 3.60 -3.714 -3.712 -3.709 -3.703 -3.695  9.70558 15.92447 -7.74985   0.288
 3.54 3.80 -3.584 -3.583 -3.580 -3.575 -3.568  9.85253 16.12718 -7.54715   0.341
 3.54 4.00 -3.459 -3.457 -3.455 -3.451 -3.445  9.99581 16.33102 -7.34333   0.402
 3.54 4.20 -3.339 -3.338 -3.336 -3.332 -3.326 10.13456 16.53692 -7.13744   0.472
 3.54 4.40 -3.226 -3.225 -3.223 -3.219 -3.214 10.27296 16.74516 -6.92920   0.553
 3.54 4.60 -3.120 -3.119 -3.117 -3.114 -3.109 10.41104 16.95661 -6.71772   0.649
 3.54 4.80 -3.021 -3.021 -3.019 -3.016 -3.012 10.54906 17.17149 -6.50279   0.760
 3.54 5.00 -2.932 -2.931 -2.930 -2.927 -2.923 10.68708 17.38899 -6.28525   0.891
 3.54 5.20 -2.850 -2.849 -2.848 -2.845 -2.841 10.82836 17.61014 -6.06410   1.049
 3.54 5.40 -2.774 -2.774 -2.773 -2.770 -2.766 10.97170 17.83129 -5.84294   1.237
 3.54 5.60 -2.704 -2.704 -2.702 -2.700 -2.697 11.11759 18.05220 -5.62202   1.464
 3.54 5.80 -2.638 -2.637 -2.636 -2.634 -2.631 11.26561 18.27227 -5.40197   1.735
 3.54 6.00 -2.573 -2.573 -2.572 -2.570 -2.566 11.41514 18.49150 -5.18277   2.061
 3.54 6.25 -2.495 -2.494 -2.493 -2.491 -2.488 11.60422 18.76128 -4.91307   2.562
 3.54 6.50 -2.416 -2.416 -2.415 -2.413 -2.410 11.79330 19.02776 -4.64666   3.185
 3.54 6.75 -2.338 -2.337 -2.336 -2.334 -2.331 11.98222 19.29072 -4.38363   3.959
 3.54 7.00 -2.259 -2.258 -2.257 -2.255 -2.253 12.17085 19.55096 -4.12332   4.919
 3.54 7.25 -2.180 -2.179 -2.178 -2.176 -2.174 12.35610 19.80877 -3.86549   6.088
 3.54 7.50 -2.101 -2.101 -2.100 -2.098 -2.095 12.53794 20.06483 -3.60942   7.506
 3.54 7.75 -2.024 -2.024 -2.023 -2.021 -2.018 12.71411 20.31967 -3.35459   9.194
 3.54 8.00 -1.949 -1.948 -1.947 -1.945 -1.943 12.88536 20.57310 -3.10116  11.198
 3.56-2.00 -4.328 -4.328 -4.328 -4.328 -4.327  6.06258 10.29994-13.37448   0.004
 3.56-1.50 -4.480 -4.480 -4.480 -4.479 -4.479  6.31597 10.79982-12.87452   0.006
 3.56-1.00 -4.618 -4.618 -4.618 -4.617 -4.616  6.57241 11.29994-12.37438   0.008
 3.56-0.50 -4.739 -4.739 -4.739 -4.738 -4.736  6.83334 11.79982-11.87452   0.010
 3.56 0.00 -4.836 -4.835 -4.834 -4.831 -4.828  7.10278 12.29994-11.37438   0.014
 3.56 0.50 -4.891 -4.890 -4.887 -4.883 -4.876  7.38650 12.79982-10.87452   0.019
 3.56 1.00 -4.886 -4.884 -4.881 -4.874 -4.865  7.69531 13.29994-10.37438   0.028
 3.56 1.25 -4.856 -4.854 -4.850 -4.843 -4.833  7.86361 13.54988-10.12445   0.034
 3.56 1.50 -4.806 -4.804 -4.800 -4.792 -4.781  8.04258 13.79982 -9.87452   0.041
 3.56 1.75 -4.734 -4.732 -4.727 -4.719 -4.709  8.23495 14.04988 -9.62446   0.051
 3.56 2.00 -4.638 -4.636 -4.631 -4.623 -4.613  8.43775 14.29994 -9.37438   0.065
 3.56 2.25 -4.518 -4.516 -4.512 -4.504 -4.494  8.65227 14.54999 -9.12430   0.083
 3.56 2.50 -4.376 -4.373 -4.369 -4.361 -4.351  8.86988 14.80003 -8.87420   0.107
 3.56 2.75 -4.215 -4.212 -4.208 -4.201 -4.191  9.08965 15.05015 -8.62406   0.138
 3.56 3.00 -4.041 -4.038 -4.035 -4.028 -4.019  9.30942 15.30038 -8.37387   0.178
 3.56 3.20 -3.896 -3.894 -3.891 -3.884 -3.876  9.48109 15.50072 -8.17351   0.217
 3.56 3.40 -3.750 -3.748 -3.745 -3.739 -3.731  9.64954 15.70126 -7.97294   0.264
 3.56 3.60 -3.603 -3.601 -3.599 -3.593 -3.586  9.81412 15.90206 -7.77212   0.319
 3.56 3.80 -3.458 -3.457 -3.454 -3.450 -3.443  9.97405 16.10341 -7.57078   0.383
 3.56 4.00 -3.316 -3.315 -3.313 -3.309 -3.303 10.12969 16.30535 -7.36886   0.458
 3.56 4.20 -3.180 -3.179 -3.177 -3.173 -3.168 10.28015 16.50850 -7.16576   0.545
 3.56 4.40 -3.049 -3.048 -3.047 -3.043 -3.038 10.42711 16.71319 -6.96113   0.645
 3.56 4.60 -2.926 -2.925 -2.923 -2.920 -2.916 10.57000 16.91992 -6.75441   0.761
 3.56 4.80 -2.810 -2.809 -2.808 -2.805 -2.801 10.71079 17.12960 -6.54467   0.894
 3.56 5.00 -2.704 -2.703 -2.702 -2.699 -2.695 10.85071 17.34203 -6.33217   1.051
 3.56 5.20 -2.607 -2.606 -2.605 -2.603 -2.599 10.99000 17.55895 -6.11526   1.234
 3.56 5.40 -2.520 -2.519 -2.518 -2.516 -2.513 11.12929 17.77768 -5.89653   1.449
 3.56 5.60 -2.442 -2.442 -2.441 -2.439 -2.436 11.26918 17.99846 -5.67576   1.702
 3.56 5.80 -2.372 -2.372 -2.371 -2.369 -2.366 11.41039 18.21992 -5.45430   2.003
 3.56 6.00 -2.308 -2.308 -2.307 -2.305 -2.302 11.55255 18.44138 -5.23284   2.359
 3.56 6.25 -2.233 -2.233 -2.232 -2.230 -2.227 11.73196 18.71525 -4.95900   2.900
 3.56 6.50 -2.161 -2.161 -2.160 -2.158 -2.155 11.91270 18.98646 -4.68782   3.571
 3.56 6.75 -2.090 -2.090 -2.089 -2.087 -2.084 12.09504 19.25362 -4.42067   4.405
 3.56 7.00 -2.019 -2.018 -2.017 -2.015 -2.013 12.27738 19.51759 -4.15670   5.434
 3.56 7.25 -1.946 -1.946 -1.945 -1.943 -1.940 12.45954 19.77851 -3.89584   6.702
 3.56 7.50 -1.873 -1.872 -1.871 -1.869 -1.867 12.64138 20.03703 -3.63733   8.262
 3.56 7.75 -1.800 -1.799 -1.798 -1.796 -1.793 12.81928 20.29372 -3.38059  10.140
 3.56 8.00 -1.727 -1.727 -1.726 -1.723 -1.721 12.99445 20.54839 -3.12581  12.406
 3.58-2.00 -4.000 -4.000 -4.000 -4.000 -4.000  6.48813 10.27990-13.39448   0.007
 3.58-1.50 -4.169 -4.169 -4.169 -4.169 -4.168  6.73949 10.77981-12.89449   0.009
 3.58-1.00 -4.325 -4.325 -4.325 -4.324 -4.324  6.99189 11.27989-12.39437   0.012
 3.58-0.50 -4.464 -4.464 -4.464 -4.463 -4.463  7.24576 11.77981-11.89449   0.016
 3.58 0.00 -4.581 -4.580 -4.580 -4.579 -4.578  7.50284 12.27989-11.39437   0.022
 3.58 0.50 -4.660 -4.659 -4.659 -4.657 -4.656  7.76507 12.77981-10.89449   0.029
 3.58 1.00 -4.681 -4.680 -4.679 -4.676 -4.673  8.03663 13.27990-10.39437   0.040
 3.58 1.25 -4.664 -4.663 -4.661 -4.658 -4.654  8.17802 13.52985-10.14443   0.047
 3.58 1.50 -4.626 -4.625 -4.623 -4.620 -4.615  8.32449 13.77981 -9.89449   0.056
 3.58 1.75 -4.569 -4.568 -4.565 -4.562 -4.556  8.47785 14.02985 -9.64443   0.067
 3.58 2.00 -4.490 -4.489 -4.487 -4.483 -4.477  8.63919 14.27989 -9.39437   0.081
 3.58 2.25 -4.390 -4.389 -4.387 -4.382 -4.376  8.81108 14.52993 -9.14443   0.098
 3.58 2.50 -4.269 -4.267 -4.265 -4.260 -4.254  8.99326 14.77996 -8.89449   0.121
 3.58 2.75 -4.125 -4.124 -4.122 -4.117 -4.111  9.18802 15.03002 -8.64437   0.151
 3.58 3.00 -3.963 -3.961 -3.959 -3.954 -3.948  9.39041 15.28012 -8.39416   0.191
 3.58 3.20 -3.822 -3.821 -3.818 -3.814 -3.808  9.55871 15.48029 -8.19395   0.232
 3.58 3.40 -3.675 -3.673 -3.671 -3.667 -3.661  9.72702 15.68057 -7.99365   0.281
 3.58 3.60 -3.523 -3.522 -3.520 -3.516 -3.510  9.89506 15.88097 -7.79324   0.341
 3.58 3.80 -3.371 -3.369 -3.367 -3.363 -3.358 10.06201 16.08165 -7.59256   0.414
 3.58 4.00 -3.218 -3.217 -3.215 -3.211 -3.206 10.22789 16.28262 -7.39158   0.502
 3.58 4.20 -3.069 -3.068 -3.066 -3.062 -3.057 10.38923 16.48427 -7.18992   0.604
 3.58 4.40 -2.923 -2.922 -2.920 -2.917 -2.912 10.54708 16.68683 -6.98735   0.724
 3.58 4.60 -2.782 -2.781 -2.780 -2.777 -2.772 10.70083 16.89058 -6.78362   0.865
 3.58 4.80 -2.648 -2.648 -2.646 -2.643 -2.639 10.85071 17.09640 -6.57787   1.028
 3.58 5.00 -2.523 -2.522 -2.521 -2.518 -2.514 10.99743 17.30428 -6.37008   1.217
 3.58 5.20 -2.407 -2.406 -2.405 -2.403 -2.399 11.14089 17.51577 -6.15855   1.435
 3.58 5.40 -2.302 -2.301 -2.300 -2.298 -2.295 11.28289 17.73007 -5.94419   1.690
 3.58 5.60 -2.208 -2.207 -2.206 -2.204 -2.201 11.42344 17.94839 -5.72579   1.987
 3.58 5.80 -2.125 -2.125 -2.124 -2.122 -2.119 11.56338 18.16877 -5.50538   2.334
 3.58 6.00 -2.053 -2.052 -2.051 -2.049 -2.047 11.70295 18.38935 -5.28483   2.741
 3.58 6.25 -1.973 -1.973 -1.972 -1.970 -1.967 11.87705 18.66521 -5.00907   3.349
 3.58 6.50 -1.902 -1.902 -1.901 -1.899 -1.896 12.05115 18.94107 -4.73330   4.092
 3.58 6.75 -1.836 -1.836 -1.835 -1.833 -1.830 12.22547 19.21243 -4.46186   5.001
 3.58 7.00 -1.772 -1.772 -1.771 -1.769 -1.766 12.40002 19.48058 -4.19362   6.115
 3.58 7.25 -1.708 -1.708 -1.707 -1.705 -1.702 12.57538 19.74497 -3.92924   7.483
 3.58 7.50 -1.644 -1.643 -1.642 -1.640 -1.637 12.75074 20.00647 -3.66776   9.157
 3.58 7.75 -1.578 -1.577 -1.576 -1.574 -1.571 12.92530 20.26564 -3.40860  11.195
 3.58 8.00 -1.511 -1.511 -1.510 -1.507 -1.504 13.09934 20.52231 -3.15193  13.678
 3.60-2.00 -3.662 -3.662 -3.662 -3.661 -3.661  6.89664 10.25959-13.41454   0.011
 3.60-1.50 -3.847 -3.847 -3.846 -3.846 -3.846  7.14737 10.75974-12.91435   0.014
 3.60-1.00 -4.018 -4.018 -4.017 -4.017 -4.016  7.39829 11.25983-12.41443   0.019
 3.60-0.50 -4.171 -4.171 -4.171 -4.171 -4.170  7.64982 11.75982-11.91435   0.025
 3.60 0.00 -4.301 -4.301 -4.300 -4.300 -4.299  7.90255 12.25983-11.41443   0.034
 3.60 0.50 -4.392 -4.392 -4.392 -4.391 -4.390  8.15715 12.75982-10.91435   0.045
 3.60 1.00 -4.424 -4.424 -4.423 -4.422 -4.421  8.41531 13.25983-10.41443   0.061
 3.60 1.25 -4.411 -4.410 -4.410 -4.409 -4.407  8.54644 13.50986-10.16439   0.071
 3.60 1.50 -4.377 -4.376 -4.376 -4.374 -4.372  8.67952 13.75990 -9.91435   0.082
 3.60 1.75 -4.322 -4.322 -4.321 -4.319 -4.317  8.81537 14.00986 -9.66433   0.096
 3.60 2.00 -4.249 -4.249 -4.248 -4.246 -4.244  8.95463 14.25983 -9.41431   0.113
 3.60 2.25 -4.159 -4.159 -4.157 -4.155 -4.153  9.09849 14.50985 -9.16433   0.134
 3.60 2.50 -4.054 -4.053 -4.052 -4.050 -4.047  9.24797 14.75989 -8.91435   0.159
 3.60 2.75 -3.934 -3.933 -3.932 -3.929 -3.926  9.40519 15.00997 -8.66429   0.190
 3.60 3.00 -3.799 -3.798 -3.797 -3.794 -3.791  9.57066 15.26007 -8.41420   0.230
 3.60 3.20 -3.681 -3.680 -3.679 -3.676 -3.672  9.71067 15.46016 -8.21413   0.270
 3.60 3.40 -3.554 -3.553 -3.552 -3.549 -3.545  9.85626 15.66028 -8.01405   0.319
 3.60 3.60 -3.419 -3.418 -3.416 -3.413 -3.409 10.00854 15.86045 -7.81387   0.381
 3.60 3.80 -3.277 -3.276 -3.274 -3.271 -3.267 10.16511 16.06078 -7.61346   0.456
 3.60 4.00 -3.129 -3.128 -3.127 -3.124 -3.119 10.32408 16.26126 -7.41285   0.548
 3.60 4.20 -2.979 -2.978 -2.977 -2.973 -2.969 10.48514 16.46215 -7.21196   0.660
 3.60 4.40 -2.828 -2.827 -2.826 -2.822 -2.818 10.64620 16.66357 -7.01060   0.794
 3.60 4.60 -2.678 -2.677 -2.676 -2.673 -2.668 10.80623 16.86562 -6.80860   0.954
 3.60 4.80 -2.532 -2.531 -2.530 -2.527 -2.522 10.96364 17.06889 -6.60534   1.144
 3.60 5.00 -2.390 -2.390 -2.388 -2.386 -2.382 11.11893 17.27346 -6.40077   1.367
 3.60 5.20 -2.256 -2.256 -2.255 -2.252 -2.248 11.27047 17.48062 -6.19366   1.628
 3.60 5.40 -2.132 -2.131 -2.130 -2.128 -2.124 11.41933 17.69037 -5.98395   1.932
 3.60 5.60 -2.018 -2.017 -2.016 -2.014 -2.011 11.56548 17.90362 -5.77069   2.287
 3.60 5.80 -1.917 -1.916 -1.915 -1.913 -1.910 11.70938 18.12010 -5.55415   2.698
 3.60 6.00 -1.827 -1.827 -1.826 -1.824 -1.821 11.85126 18.33885 -5.33536   3.177
 3.60 6.25 -1.733 -1.732 -1.731 -1.729 -1.726 12.02624 18.61570 -5.05854   3.886
 3.60 6.50 -1.653 -1.652 -1.651 -1.649 -1.646 12.19893 18.89254 -4.78173   4.741
 3.60 6.75 -1.584 -1.584 -1.583 -1.581 -1.578 12.36940 19.16727 -4.50698   5.769
 3.60 7.00 -1.522 -1.522 -1.521 -1.519 -1.516 12.53870 19.43981 -4.23440   7.011
 3.60 7.25 -1.465 -1.464 -1.463 -1.461 -1.458 12.70717 19.70814 -3.96603   8.511
 3.60 7.50 -1.408 -1.408 -1.407 -1.404 -1.401 12.87512 19.97322 -3.70093  10.327
 3.60 7.75 -1.352 -1.352 -1.351 -1.348 -1.345 13.04277 20.23535 -3.43887  12.526
 3.60 8.00 -1.295 -1.295 -1.293 -1.291 -1.287 13.21005 20.49443 -3.17993  15.188
 3.62-2.00 -3.317 -3.316 -3.316 -3.316 -3.315  7.28870 10.23930-13.43486   0.016
 3.62-1.50 -3.516 -3.516 -3.515 -3.515 -3.514  7.53920 10.73957-12.93479   0.022
 3.62-1.00 -3.701 -3.701 -3.701 -3.700 -3.700  7.78979 11.23980-12.43462   0.029
 3.62-0.50 -3.869 -3.869 -3.868 -3.868 -3.867  8.04060 11.73973-11.93442   0.039
 3.62 0.00 -4.009 -4.009 -4.008 -4.008 -4.007  8.29159 12.23980-11.43451   0.052
 3.62 0.50 -4.106 -4.106 -4.105 -4.105 -4.104  8.54345 12.73981-10.93442   0.069
 3.62 1.00 -4.138 -4.138 -4.138 -4.137 -4.136  8.79664 13.23980-10.43439   0.092
 3.62 1.25 -4.124 -4.124 -4.124 -4.123 -4.121  8.92409 13.48981-10.18441   0.107
 3.62 1.50 -4.089 -4.089 -4.088 -4.087 -4.086  9.05231 13.73981 -9.93442   0.124
 3.62 1.75 -4.033 -4.033 -4.032 -4.031 -4.030  9.18148 13.98981 -9.68440   0.144
 3.62 2.00 -3.960 -3.959 -3.959 -3.958 -3.956  9.31197 14.23980 -9.43439   0.167
 3.62 2.25 -3.872 -3.871 -3.870 -3.869 -3.867  9.44440 14.48980 -9.18440   0.194
 3.62 2.50 -3.771 -3.771 -3.770 -3.769 -3.767  9.57921 14.73981 -8.93442   0.227
 3.62 2.75 -3.662 -3.661 -3.660 -3.659 -3.656  9.71722 14.98993 -8.68442   0.266
 3.62 3.00 -3.543 -3.542 -3.541 -3.540 -3.537  9.85914 15.24005 -8.43439   0.313
 3.62 3.20 -3.442 -3.441 -3.440 -3.438 -3.436  9.97640 15.44005 -8.23426   0.358
 3.62 3.40 -3.336 -3.335 -3.334 -3.332 -3.329 10.09754 15.64005 -8.03412   0.412
 3.62 3.60 -3.223 -3.223 -3.221 -3.219 -3.216 10.22314 15.84009 -7.83398   0.477
 3.62 3.80 -3.105 -3.104 -3.103 -3.100 -3.096 10.35395 16.04026 -7.63383   0.554
 3.62 4.00 -2.980 -2.979 -2.977 -2.975 -2.971 10.48968 16.24055 -7.43368   0.648
 3.62 4.20 -2.848 -2.848 -2.846 -2.843 -2.839 10.63149 16.44104 -7.23318   0.763
 3.62 4.40 -2.712 -2.711 -2.709 -2.706 -2.702 10.77720 16.64183 -7.03235   0.902
 3.62 4.60 -2.570 -2.569 -2.568 -2.565 -2.560 10.92768 16.84297 -6.83120   1.072
 3.62 4.80 -2.426 -2.426 -2.424 -2.421 -2.417 11.08021 17.04484 -6.62941   1.278
 3.62 5.00 -2.282 -2.281 -2.280 -2.277 -2.273 11.23300 17.24748 -6.42690   1.524
 3.62 5.20 -2.140 -2.139 -2.138 -2.135 -2.131 11.38593 17.45167 -6.22275   1.817
 3.62 5.40 -2.002 -2.002 -2.001 -1.998 -1.994 11.53885 17.65774 -6.01668   2.167
 3.62 5.60 -1.872 -1.872 -1.871 -1.869 -1.865 11.69064 17.86638 -5.80800   2.580
 3.62 5.80 -1.753 -1.752 -1.751 -1.749 -1.746 11.83981 18.07833 -5.59600   3.064
 3.62 6.00 -1.644 -1.644 -1.643 -1.641 -1.637 11.98700 18.29314 -5.38112   3.630
 3.62 6.25 -1.527 -1.527 -1.526 -1.524 -1.520 12.16740 18.56748 -5.10672   4.468
 3.62 6.50 -1.430 -1.429 -1.428 -1.426 -1.423 12.34400 18.84298 -4.83121   5.475
 3.62 6.75 -1.349 -1.349 -1.348 -1.345 -1.342 12.51633 19.11924 -4.55499   6.677
 3.62 7.00 -1.282 -1.281 -1.280 -1.278 -1.274 12.68520 19.39550 -4.27877   8.110
 3.62 7.25 -1.223 -1.223 -1.222 -1.219 -1.215 12.85086 19.66764 -4.00661   9.812
 3.62 7.50 -1.171 -1.170 -1.169 -1.166 -1.162 13.01410 19.93666 -3.73755  11.840
 3.62 7.75 -1.121 -1.121 -1.120 -1.117 -1.113 13.17557 20.20208 -3.47212  14.260
 3.62 8.00 -1.073 -1.073 -1.071 -1.069 -1.064 13.33506 20.46404 -3.21014  17.138
 3.64-2.00 -2.968 -2.968 -2.968 -2.967 -2.966  7.66162 10.21880-13.45556   0.024
 3.64-1.50 -3.180 -3.180 -3.179 -3.179 -3.178  7.91233 10.71917-12.95507   0.033
 3.64-1.00 -3.379 -3.379 -3.379 -3.378 -3.377  8.16286 11.21958-12.45469   0.043
 3.64-0.50 -3.560 -3.560 -3.559 -3.559 -3.558  8.41330 11.71966-11.95468   0.058
 3.64 0.00 -3.711 -3.711 -3.711 -3.710 -3.709  8.66389 12.21985-11.45445   0.077
 3.64 0.50 -3.814 -3.814 -3.813 -3.813 -3.811  8.91471 12.71983-10.95429   0.103
 3.64 1.00 -3.845 -3.845 -3.844 -3.843 -3.842  9.16613 13.21985-10.45445   0.138
 3.64 1.25 -3.829 -3.828 -3.828 -3.827 -3.825  9.29208 13.46984-10.20437   0.159
 3.64 1.50 -3.791 -3.790 -3.790 -3.789 -3.787  9.41830 13.71983 -9.95429   0.184
 3.64 1.75 -3.733 -3.732 -3.732 -3.730 -3.729  9.54505 13.96983 -9.70430   0.213
 3.64 2.00 -3.658 -3.657 -3.656 -3.655 -3.653  9.67238 14.21985 -9.45432   0.247
 3.64 2.25 -3.569 -3.569 -3.568 -3.566 -3.564  9.80040 14.46988 -9.20430   0.286
 3.64 2.50 -3.470 -3.470 -3.469 -3.467 -3.465  9.92937 14.71991 -8.95429   0.332
 3.64 2.75 -3.364 -3.363 -3.363 -3.361 -3.358 10.05971 14.96988 -8.70430   0.386
 3.64 3.00 -3.252 -3.251 -3.250 -3.248 -3.245 10.19173 15.21985 -8.45432   0.449
 3.64 3.20 -3.158 -3.157 -3.156 -3.154 -3.151 10.29891 15.41988 -8.25432   0.508
 3.64 3.40 -3.061 -3.060 -3.059 -3.057 -3.053 10.40786 15.61995 -8.05430   0.576
 3.64 3.60 -2.960 -2.960 -2.958 -2.956 -2.952 10.51877 15.82005 -7.85425   0.655
 3.64 3.80 -2.856 -2.855 -2.854 -2.851 -2.847 10.63243 16.02018 -7.65413   0.746
 3.64 4.00 -2.749 -2.748 -2.746 -2.743 -2.739 10.74889 16.22037 -7.45395   0.853
 3.64 4.20 -2.636 -2.635 -2.634 -2.631 -2.626 10.86908 16.42062 -7.25372   0.979
 3.64 4.40 -2.519 -2.519 -2.517 -2.514 -2.509 10.99309 16.62100 -7.05335   1.130
 3.64 4.60 -2.398 -2.397 -2.395 -2.392 -2.387 11.12138 16.82160 -6.85277   1.309
 3.64 4.80 -2.272 -2.271 -2.269 -2.266 -2.261 11.25402 17.02269 -6.65170   1.525
 3.64 5.00 -2.142 -2.141 -2.139 -2.136 -2.132 11.39058 17.22428 -6.45014   1.785
 3.64 5.20 -2.009 -2.008 -2.007 -2.004 -1.999 11.53157 17.42668 -6.24765   2.100
 3.64 5.40 -1.875 -1.875 -1.873 -1.871 -1.866 11.67488 17.63030 -6.04391   2.476
 3.64 5.60 -1.743 -1.743 -1.741 -1.739 -1.735 11.82092 17.83563 -5.83853   2.930
 3.64 5.80 -1.616 -1.615 -1.614 -1.612 -1.608 11.96793 18.04369 -5.63057   3.470
 3.64 6.00 -1.495 -1.495 -1.493 -1.491 -1.487 12.11494 18.25431 -5.42010   4.110
 3.64 6.25 -1.359 -1.359 -1.357 -1.355 -1.351 12.29772 18.52308 -5.15133   5.073
 3.64 6.50 -1.241 -1.241 -1.239 -1.237 -1.233 12.47914 18.79560 -4.87877   6.251
 3.64 6.75 -1.143 -1.142 -1.141 -1.139 -1.135 12.65594 19.07234 -4.60195   7.663
 3.64 7.00 -1.062 -1.061 -1.060 -1.057 -1.053 12.82853 19.34908 -4.32514   9.348
 3.64 7.25 -0.996 -0.995 -0.994 -0.991 -0.987 12.99566 19.62408 -4.05010  11.332
 3.64 7.50 -0.940 -0.940 -0.938 -0.935 -0.931 13.15836 19.89713 -3.77702  13.666
 3.64 7.75 -0.892 -0.892 -0.890 -0.887 -0.883 13.31722 20.16604 -3.50816  16.408
 3.64 8.00 -0.849 -0.849 -0.847 -0.844 -0.839 13.47202 20.43152 -3.24276  19.609
 3.66-2.00 -2.621 -2.621 -2.620 -2.619 -2.618  8.01828 10.19701-13.47730   0.036
 3.66-1.50 -2.843 -2.843 -2.842 -2.841 -2.840  8.26975 10.69819-12.97593   0.048
 3.66-1.00 -3.054 -3.053 -3.053 -3.052 -3.051  8.52075 11.19893-12.47534   0.064
 3.66-0.50 -3.247 -3.247 -3.246 -3.245 -3.244  8.77129 11.69932-11.97510   0.086
 3.66 0.00 -3.411 -3.411 -3.410 -3.409 -3.408  9.02160 12.19948-11.47470   0.114
 3.66 0.50 -3.523 -3.522 -3.522 -3.521 -3.519  9.27231 12.69967-10.97469   0.152
 3.66 1.00 -3.555 -3.555 -3.554 -3.553 -3.551  9.52284 13.19976-10.47444   0.203
 3.66 1.25 -3.537 -3.537 -3.536 -3.535 -3.533  9.64827 13.44975-10.22434   0.235
 3.66 1.50 -3.498 -3.497 -3.496 -3.495 -3.493  9.77386 13.69975 -9.97428   0.271
 3.66 1.75 -3.438 -3.437 -3.437 -3.435 -3.433  9.89968 13.94975 -9.72436   0.313
 3.66 2.00 -3.362 -3.361 -3.360 -3.359 -3.356 10.02571 14.19976 -9.47444   0.362
 3.66 2.25 -3.273 -3.272 -3.271 -3.269 -3.267 10.15195 14.44979 -9.22436   0.419
 3.66 2.50 -3.174 -3.174 -3.172 -3.171 -3.168 10.27853 14.69984 -8.97429   0.485
 3.66 2.75 -3.069 -3.068 -3.067 -3.065 -3.062 10.40578 14.94993 -8.72436   0.562
 3.66 3.00 -2.959 -2.958 -2.957 -2.954 -2.951 10.53377 15.20003 -8.47444   0.651
 3.66 3.20 -2.867 -2.867 -2.865 -2.863 -2.859 10.63681 15.39999 -8.27438   0.733
 3.66 3.40 -2.774 -2.773 -2.772 -2.769 -2.765 10.74062 15.59995 -8.07432   0.826
 3.66 3.60 -2.678 -2.677 -2.676 -2.673 -2.668 10.84529 15.79992 -7.87426   0.932
 3.66 3.80 -2.580 -2.579 -2.578 -2.575 -2.570 10.95121 15.99995 -7.67422   1.052
 3.66 4.00 -2.480 -2.479 -2.477 -2.474 -2.469 11.05843 16.20003 -7.47418   1.190
 3.66 4.20 -2.377 -2.376 -2.374 -2.371 -2.366 11.16734 16.40019 -7.27398   1.349
 3.66 4.40 -2.272 -2.271 -2.269 -2.265 -2.260 11.27825 16.60045 -7.07366   1.533
 3.66 4.60 -2.164 -2.163 -2.161 -2.157 -2.151 11.39135 16.80081 -6.87327   1.746
 3.66 4.80 -2.052 -2.051 -2.049 -2.045 -2.040 11.50724 17.00139 -6.67273   1.995
 3.66 5.00 -1.938 -1.937 -1.935 -1.931 -1.926 11.62593 17.20222 -6.47198   2.288
 3.66 5.20 -1.820 -1.819 -1.818 -1.814 -1.809 11.74811 17.40366 -6.27059   2.634
 3.66 5.40 -1.700 -1.699 -1.698 -1.695 -1.690 11.87356 17.60590 -6.06838   3.043
 3.66 5.60 -1.580 -1.579 -1.578 -1.575 -1.570 12.00258 17.80915 -5.86514   3.530
 3.66 5.80 -1.460 -1.459 -1.458 -1.455 -1.450 12.13484 18.01422 -5.66005   4.110
 3.66 6.00 -1.342 -1.341 -1.340 -1.337 -1.333 12.26998 18.22116 -5.45309   4.802
 3.66 6.25 -1.202 -1.202 -1.200 -1.198 -1.193 12.44364 18.48464 -5.18974   5.865
 3.66 6.50 -1.074 -1.073 -1.072 -1.069 -1.065 12.61815 18.75259 -4.92191   7.170
 3.66 6.75 -0.962 -0.961 -0.960 -0.957 -0.953 12.79320 19.02668 -4.64761   8.771
 3.66 7.00 -0.867 -0.866 -0.865 -0.862 -0.857 12.96825 19.30211 -4.37212  10.729
 3.66 7.25 -0.789 -0.788 -0.787 -0.784 -0.779 13.13797 19.57845 -4.09586  13.043
 3.66 7.50 -0.725 -0.724 -0.723 -0.720 -0.715 13.30320 19.85479 -3.81959  15.775
 3.66 7.75 -0.673 -0.673 -0.671 -0.668 -0.663 13.46239 20.12691 -3.54743  18.949
 3.66 8.00 -0.630 -0.630 -0.628 -0.625 -0.619 13.61606 20.39620 -3.27802  22.618
 3.68-2.00 -2.278 -2.278 -2.277 -2.276 -2.275  8.35622 10.17348-13.50086   0.052
 3.68-1.50 -2.508 -2.507 -2.507 -2.506 -2.504  8.60917 10.67614-12.99827   0.069
 3.68-1.00 -2.728 -2.727 -2.727 -2.726 -2.724  8.86100 11.17783-12.49648   0.093
 3.68-0.50 -2.932 -2.932 -2.931 -2.930 -2.928  9.11193 11.67870-11.99568   0.124
 3.68 0.00 -3.109 -3.108 -3.108 -3.106 -3.104  9.36267 12.17927-11.49499   0.165
 3.68 0.50 -3.232 -3.231 -3.231 -3.229 -3.227  9.61321 12.67952-10.99482   0.220
 3.68 1.00 -3.271 -3.271 -3.270 -3.268 -3.266  9.86362 13.17984-10.49458   0.294
 3.68 1.25 -3.255 -3.254 -3.253 -3.252 -3.249  9.98895 13.42982-10.24447   0.339
 3.68 1.50 -3.215 -3.214 -3.213 -3.211 -3.209 10.11428 13.67979 -9.99439   0.392
 3.68 1.75 -3.155 -3.154 -3.153 -3.151 -3.148 10.23960 13.92982 -9.74442   0.453
 3.68 2.00 -3.078 -3.077 -3.076 -3.074 -3.071 10.36493 14.17984 -9.49444   0.524
 3.68 2.25 -2.989 -2.988 -2.987 -2.985 -2.981 10.49049 14.42986 -9.24442   0.605
 3.68 2.50 -2.890 -2.890 -2.888 -2.886 -2.882 10.61627 14.67988 -8.99439   0.699
 3.68 2.75 -2.786 -2.785 -2.783 -2.781 -2.777 10.74230 14.92986 -8.74435   0.808
 3.68 3.00 -2.676 -2.675 -2.674 -2.671 -2.666 10.86864 15.17984 -8.49431   0.935
 3.68 3.20 -2.586 -2.585 -2.583 -2.580 -2.575 10.96996 15.37984 -8.29434   1.051
 3.68 3.40 -2.494 -2.493 -2.491 -2.488 -2.483 11.07160 15.57986 -8.09437   1.181
 3.68 3.60 -2.400 -2.399 -2.397 -2.393 -2.388 11.17364 15.77993 -7.89435   1.328
 3.68 3.80 -2.304 -2.303 -2.301 -2.298 -2.292 11.27626 15.98003 -7.69426   1.494
 3.68 4.00 -2.207 -2.206 -2.204 -2.200 -2.194 11.37949 16.18013 -7.49417   1.683
 3.68 4.20 -2.108 -2.107 -2.105 -2.101 -2.095 11.48347 16.38021 -7.29409   1.897
 3.68 4.40 -2.008 -2.007 -2.005 -2.001 -1.994 11.58837 16.58029 -7.09400   2.141
 3.68 4.60 -1.906 -1.905 -1.902 -1.898 -1.892 11.69431 16.78044 -6.89385   2.419
 3.68 4.80 -1.801 -1.800 -1.798 -1.794 -1.788 11.80163 16.98077 -6.69349   2.737
 3.68 5.00 -1.695 -1.694 -1.692 -1.688 -1.682 11.91036 17.18127 -6.49295   3.102
 3.68 5.20 -1.587 -1.586 -1.585 -1.581 -1.575 12.02087 17.38212 -6.29216   3.523
 3.68 5.40 -1.478 -1.477 -1.475 -1.472 -1.466 12.13335 17.58345 -6.09092   4.010
 3.68 5.60 -1.367 -1.367 -1.365 -1.362 -1.357 12.24797 17.78543 -5.88901   4.576
 3.68 5.80 -1.257 -1.257 -1.255 -1.252 -1.247 12.36506 17.98863 -5.68578   5.236
 3.68 6.00 -1.148 -1.147 -1.146 -1.143 -1.138 12.48459 18.19312 -5.48122   6.008
 3.68 6.25 -1.017 -1.016 -1.015 -1.012 -1.007 12.63784 18.45216 -5.22210   7.168
 3.68 6.50 -0.893 -0.892 -0.891 -0.888 -0.883 12.79505 18.71517 -4.95900   8.590
 3.68 6.75 -0.780 -0.779 -0.778 -0.775 -0.769 12.95737 18.98436 -4.68983  10.355
 3.68 7.00 -0.679 -0.679 -0.677 -0.674 -0.669 13.12090 19.25720 -4.41703  12.500
 3.68 7.25 -0.595 -0.594 -0.592 -0.589 -0.584 13.28527 19.53399 -4.14031  15.103
 3.68 7.50 -0.524 -0.523 -0.521 -0.518 -0.513 13.44963 19.81077 -3.86360  18.248
 3.68 7.75 -0.467 -0.466 -0.465 -0.461 -0.455 13.60812 20.08537 -3.58899  21.901
 3.68 8.00 -0.421 -0.420 -0.418 -0.415 -0.409 13.76268 20.35851 -3.31578  26.168
 3.70-2.00 -1.943 -1.943 -1.942 -1.941 -1.939  8.67532 10.14551-13.52886   0.073
 3.70-1.50 -2.177 -2.177 -2.176 -2.175 -2.172  8.93212 10.65167-13.02264   0.098
 3.70-1.00 -2.403 -2.403 -2.402 -2.401 -2.399  9.18611 11.15534-12.51899   0.132
 3.70-0.50 -2.617 -2.616 -2.615 -2.614 -2.612  9.43823 11.65725-12.01705   0.176
 3.70 0.00 -2.804 -2.803 -2.803 -2.801 -2.799  9.68949 12.15836-11.51584   0.235
 3.70 0.50 -2.940 -2.940 -2.939 -2.937 -2.934  9.94022 12.65906-11.01525   0.314
 3.70 1.00 -2.991 -2.990 -2.989 -2.987 -2.984 10.19089 13.15927-10.51485   0.419
 3.70 1.25 -2.978 -2.977 -2.976 -2.974 -2.971 10.31606 13.40939-10.26478   0.484
 3.70 1.50 -2.940 -2.940 -2.938 -2.936 -2.933 10.44122 13.65954-10.01471   0.558
 3.70 1.75 -2.881 -2.881 -2.879 -2.877 -2.874 10.56644 13.90970 -9.76464   0.645
 3.70 2.00 -2.806 -2.805 -2.804 -2.801 -2.797 10.69170 14.15987 -9.51456   0.745
 3.70 2.25 -2.717 -2.716 -2.715 -2.712 -2.708 10.81700 14.40980 -9.26455   0.861
 3.70 2.50 -2.619 -2.618 -2.617 -2.614 -2.609 10.94236 14.65973 -9.01453   0.994
 3.70 2.75 -2.515 -2.514 -2.512 -2.509 -2.504 11.06781 14.90980 -8.76447   1.149
 3.70 3.00 -2.406 -2.405 -2.403 -2.400 -2.394 11.19340 15.15987 -8.51442   1.328
 3.70 3.20 -2.316 -2.315 -2.313 -2.310 -2.304 11.29404 15.35985 -8.31443   1.491
 3.70 3.40 -2.225 -2.224 -2.222 -2.218 -2.212 11.39483 15.55983 -8.11444   1.674
 3.70 3.60 -2.132 -2.131 -2.129 -2.124 -2.118 11.49580 15.75982 -7.91441   1.880
 3.70 3.80 -2.038 -2.036 -2.034 -2.030 -2.023 11.59699 15.95983 -7.71434   2.113
 3.70 4.00 -1.942 -1.941 -1.938 -1.934 -1.927 11.69845 16.15987 -7.51428   2.375
 3.70 4.20 -1.845 -1.844 -1.841 -1.837 -1.830 11.80027 16.35993 -7.31424   2.670
 3.70 4.40 -1.747 -1.746 -1.743 -1.739 -1.732 11.90252 16.56004 -7.11419   3.004
 3.70 4.60 -1.647 -1.646 -1.644 -1.639 -1.632 12.00525 16.76019 -6.91410   3.380
 3.70 4.80 -1.547 -1.545 -1.543 -1.539 -1.532 12.10865 16.96043 -6.71389   3.808
 3.70 5.00 -1.445 -1.444 -1.441 -1.437 -1.431 12.21272 17.16077 -6.51357   4.293
 3.70 5.20 -1.341 -1.340 -1.338 -1.334 -1.328 12.31765 17.36126 -6.31308   4.844
 3.70 5.40 -1.237 -1.236 -1.234 -1.230 -1.224 12.42353 17.56200 -6.11230   5.473
 3.70 5.60 -1.132 -1.131 -1.130 -1.126 -1.120 12.53044 17.76313 -5.91112   6.189
 3.70 5.80 -1.027 -1.027 -1.025 -1.022 -1.016 12.63858 17.96509 -5.70912   7.010
 3.70 6.00 -0.923 -0.923 -0.921 -0.918 -0.913 12.74796 18.16791 -5.50626   7.951
 3.70 6.25 -0.799 -0.798 -0.797 -0.794 -0.788 12.88668 18.42384 -5.25037   9.328
 3.70 6.50 -0.680 -0.679 -0.678 -0.674 -0.669 13.02776 18.68287 -4.99140  10.972
 3.70 6.75 -0.570 -0.569 -0.568 -0.565 -0.559 13.17151 18.94703 -4.72720  12.947
 3.70 7.00 -0.472 -0.471 -0.470 -0.467 -0.461 13.31786 19.21564 -4.45855  15.323
 3.70 7.25 -0.389 -0.388 -0.387 -0.383 -0.377 13.46810 19.49052 -4.18362  18.217
 3.70 7.50 -0.318 -0.318 -0.316 -0.313 -0.307 13.61847 19.76619 -3.90798  21.660
 3.70 7.75 -0.261 -0.261 -0.259 -0.255 -0.249 13.76887 20.04212 -3.63212  25.755
 3.70 8.00 -0.215 -0.214 -0.213 -0.209 -0.202 13.91934 20.31848 -3.35586  30.625
 3.73-2.00 -1.460 -1.460 -1.459 -1.458 -1.456  9.10585 10.08672-13.58754   0.116
 3.73-1.50 -1.695 -1.694 -1.694 -1.692 -1.689  9.37694 10.60487-13.06936   0.158
 3.73-1.00 -1.924 -1.924 -1.923 -1.921 -1.919  9.63879 11.11561-12.55862   0.214
 3.73-0.50 -2.144 -2.143 -2.142 -2.141 -2.138  9.89548 11.62180-12.05247   0.288
 3.73 0.00 -2.342 -2.341 -2.340 -2.338 -2.335 10.14922 12.12548-11.54898   0.386
 3.73 0.50 -2.495 -2.494 -2.493 -2.491 -2.488 10.40140 12.62726-11.04697   0.515
 3.73 1.00 -2.566 -2.566 -2.564 -2.562 -2.558 10.65263 13.12840-10.54577   0.688
 3.73 1.25 -2.563 -2.562 -2.561 -2.558 -2.554 10.77804 13.37881-10.29546   0.795
 3.73 1.50 -2.533 -2.532 -2.531 -2.528 -2.524 10.90342 13.62910-10.04523   0.919
 3.73 1.75 -2.480 -2.479 -2.478 -2.475 -2.471 11.02878 13.87924 -9.79502   1.062
 3.73 2.00 -2.409 -2.408 -2.406 -2.403 -2.399 11.15412 14.12937 -9.54485   1.226
 3.73 2.25 -2.323 -2.322 -2.321 -2.318 -2.313 11.27922 14.37950 -9.29473   1.416
 3.73 2.50 -2.228 -2.227 -2.225 -2.222 -2.217 11.40432 14.62961 -9.04465   1.635
 3.73 2.75 -2.126 -2.125 -2.123 -2.119 -2.114 11.52963 14.87965 -8.79460   1.889
 3.73 3.00 -2.019 -2.018 -2.016 -2.012 -2.006 11.65495 15.12969 -8.54455   2.182
 3.73 3.20 -1.931 -1.929 -1.927 -1.923 -1.917 11.75520 15.32973 -8.34451   2.449
 3.73 3.40 -1.841 -1.839 -1.837 -1.833 -1.826 11.85545 15.52979 -8.14447   2.749
 3.73 3.60 -1.749 -1.748 -1.746 -1.741 -1.734 11.95579 15.72986 -7.94445   3.085
 3.73 3.80 -1.657 -1.655 -1.653 -1.648 -1.641 12.05628 15.92993 -7.74442   3.464
 3.73 4.00 -1.563 -1.562 -1.559 -1.554 -1.547 12.15685 16.13001 -7.54439   3.889
 3.73 4.20 -1.468 -1.467 -1.464 -1.459 -1.452 12.25746 16.33002 -7.34437   4.367
 3.73 4.40 -1.372 -1.371 -1.369 -1.364 -1.356 12.35818 16.53002 -7.14433   4.903
 3.73 4.60 -1.275 -1.274 -1.272 -1.267 -1.259 12.45907 16.73005 -6.94427   5.507
 3.73 4.80 -1.177 -1.176 -1.174 -1.169 -1.162 12.56023 16.93016 -6.74413   6.188
 3.73 5.00 -1.079 -1.077 -1.075 -1.071 -1.063 12.66162 17.13033 -6.54394   6.954
 3.73 5.20 -0.979 -0.977 -0.975 -0.971 -0.964 12.76326 17.33056 -6.34369   7.818
 3.73 5.40 -0.878 -0.877 -0.875 -0.871 -0.864 12.86520 17.53092 -6.14333   8.791
 3.73 5.60 -0.777 -0.776 -0.774 -0.770 -0.764 12.96756 17.73146 -5.94280   9.890
 3.73 5.80 -0.675 -0.675 -0.673 -0.670 -0.664 13.07035 17.93244 -5.74184  11.132
 3.73 6.00 -0.575 -0.574 -0.573 -0.569 -0.564 13.17348 18.13386 -5.54046  12.534
 3.73 6.25 -0.453 -0.452 -0.451 -0.448 -0.442 13.30282 18.38690 -5.28743  14.548
 3.73 6.50 -0.335 -0.334 -0.333 -0.330 -0.324 13.43249 18.64177 -5.03255  16.891
 3.73 6.75 -0.224 -0.223 -0.222 -0.219 -0.213 13.56249 18.90010 -4.77420  19.618
 3.73 7.00 -0.123 -0.122 -0.121 -0.118 -0.112 13.69249 19.16227 -4.51201  22.786
 3.73 7.25 -0.037 -0.036 -0.035 -0.032 -0.026 13.82214 19.43032 -4.24388  26.454
 3.73 7.50  0.032  0.032  0.034  0.037  0.043 13.95168 19.70234 -3.97184  30.710
 3.73 7.75  0.084  0.085  0.087  0.090  0.096 14.08117 19.97738 -3.69686  35.649
 3.73 8.00  0.123  0.124  0.126  0.130  0.136 14.21059 20.25575 -3.41862  41.380
 3.76-2.00 -1.021 -1.021 -1.020 -1.018 -1.016  9.44963  9.98994-13.68424   0.166
 3.76-1.50 -1.239 -1.239 -1.238 -1.237 -1.234  9.75899 10.53224-13.14200   0.238
 3.76-1.00 -1.462 -1.461 -1.460 -1.459 -1.456 10.04297 11.05994-12.61421   0.330
 3.76-0.50 -1.677 -1.677 -1.676 -1.674 -1.671 10.31239 11.57692-12.09740   0.449
 3.76 0.00 -1.876 -1.875 -1.874 -1.872 -1.869 10.57334 12.08672-11.58754   0.607
 3.76 0.50 -2.036 -2.036 -2.035 -2.033 -2.029 10.82943 12.59240-11.08181   0.815
 3.76 1.00 -2.125 -2.125 -2.124 -2.121 -2.118 11.08279 13.09587-10.57856   1.091
 3.76 1.25 -2.133 -2.133 -2.131 -2.129 -2.125 11.20894 13.34676-10.32755   1.261
 3.76 1.50 -2.115 -2.114 -2.113 -2.110 -2.106 11.33486 13.59748-10.07676   1.458
 3.76 1.75 -2.072 -2.072 -2.070 -2.067 -2.063 11.46058 13.84813 -9.82610   1.685
 3.76 2.00 -2.010 -2.009 -2.007 -2.004 -2.000 11.58614 14.09864 -9.57561   1.948
 3.76 2.25 -1.932 -1.931 -1.929 -1.926 -1.921 11.71150 14.34893 -9.32536   2.250
 3.76 2.50 -1.842 -1.842 -1.840 -1.837 -1.831 11.83683 14.59912 -9.07515   2.599
 3.76 2.75 -1.745 -1.744 -1.743 -1.739 -1.733 11.96214 14.84923 -8.82496   3.002
 3.76 3.00 -1.643 -1.642 -1.640 -1.636 -1.630 12.08743 15.09934 -8.57479   3.468
 3.76 3.20 -1.558 -1.557 -1.555 -1.551 -1.545 12.18760 15.29947 -8.37473   3.892
 3.76 3.40 -1.472 -1.470 -1.468 -1.464 -1.458 12.28777 15.49960 -8.17467   4.368
 3.76 3.60 -1.384 -1.382 -1.380 -1.376 -1.369 12.38798 15.69967 -7.97460   4.903
 3.76 3.80 -1.294 -1.293 -1.290 -1.286 -1.279 12.48823 15.89968 -7.77453   5.502
 3.76 4.00 -1.204 -1.202 -1.200 -1.195 -1.188 12.58850 16.09968 -7.57447   6.175
 3.76 4.20 -1.112 -1.110 -1.108 -1.103 -1.096 12.68877 16.29976 -7.37445   6.931
 3.76 4.40 -1.019 -1.018 -1.015 -1.010 -1.003 12.78907 16.49984 -7.17444   7.779
 3.76 4.60 -0.925 -0.924 -0.921 -0.916 -0.909 12.88948 16.69991 -6.97438   8.733
 3.76 4.80 -0.830 -0.828 -0.826 -0.821 -0.814 12.99002 16.89997 -6.77427   9.804
 3.76 5.00 -0.733 -0.732 -0.730 -0.725 -0.718 13.09061 17.10003 -6.57414  11.007
 3.76 5.20 -0.636 -0.635 -0.633 -0.628 -0.621 13.19121 17.30017 -6.37401  12.359
 3.76 5.40 -0.538 -0.537 -0.535 -0.531 -0.524 13.29187 17.50040 -6.17385  13.880
 3.76 5.60 -0.439 -0.438 -0.436 -0.432 -0.426 13.39273 17.70069 -5.97360  15.589
 3.76 5.80 -0.339 -0.339 -0.337 -0.334 -0.328 13.49380 17.90113 -5.77309  17.512
 3.76 6.00 -0.240 -0.239 -0.238 -0.235 -0.229 13.59494 18.10175 -5.57235  19.674
 3.76 6.25 -0.119 -0.118 -0.117 -0.114 -0.108 13.72144 18.35332 -5.32081  22.758
 3.76 6.50  0.000  0.000  0.002  0.004  0.010 13.84794 18.60595 -5.06829  26.326
 3.76 6.75  0.115  0.115  0.116  0.119  0.124 13.97407 18.86051 -4.81372  30.441
 3.76 7.00  0.223  0.223  0.225  0.227  0.233 14.09968 19.11760 -4.55658  35.178
 3.76 7.25  0.320  0.320  0.322  0.324  0.330 14.22371 19.37928 -4.29498  40.579
 3.76 7.50  0.402  0.403  0.404  0.407  0.412 14.34596 19.64532 -4.02900  46.713
 3.76 7.75  0.465  0.465  0.467  0.470  0.475 14.46533 19.91640 -3.75789  53.595
 3.76 8.00  0.509  0.509  0.511  0.514  0.520 14.58218 20.19229 -3.48188  61.311
 3.79-2.00 -0.697 -0.696 -0.695 -0.694 -0.691  9.64856  9.86303-13.81135   0.202
 3.79-1.50 -0.847 -0.847 -0.846 -0.844 -0.841 10.03623 10.41963-13.25469   0.316
 3.79-1.00 -1.034 -1.033 -1.032 -1.031 -1.027 10.37346 10.97234-12.70202   0.466
 3.79-0.50 -1.229 -1.229 -1.228 -1.226 -1.223 10.67505 11.51068-12.16361   0.659
 3.79 0.00 -1.415 -1.415 -1.414 -1.412 -1.409 10.95458 12.03543-11.63903   0.909
 3.79 0.50 -1.570 -1.569 -1.568 -1.566 -1.564 11.22115 12.54998-11.12436   1.236
 3.79 1.00 -1.666 -1.665 -1.664 -1.662 -1.659 11.48058 13.05843-10.61565   1.666
 3.79 1.25 -1.683 -1.682 -1.681 -1.679 -1.676 11.60867 13.31129-10.36293   1.931
 3.79 1.50 -1.676 -1.676 -1.675 -1.672 -1.669 11.73600 13.56348-10.11087   2.236
 3.79 1.75 -1.647 -1.646 -1.645 -1.643 -1.639 11.86270 13.81511 -9.85924   2.587
 3.79 2.00 -1.597 -1.597 -1.595 -1.593 -1.588 11.98901 14.06633 -9.60801   2.992
 3.79 2.25 -1.531 -1.530 -1.529 -1.526 -1.522 12.11501 14.31721 -9.35713   3.459
 3.79 2.50 -1.452 -1.451 -1.450 -1.447 -1.442 12.24080 14.56785 -9.10646   3.998
 3.79 2.75 -1.364 -1.363 -1.361 -1.358 -1.353 12.36643 14.81821 -8.85594   4.620
 3.79 3.00 -1.269 -1.268 -1.267 -1.263 -1.258 12.49192 15.06856 -8.60555   5.338
 3.79 3.20 -1.190 -1.189 -1.187 -1.184 -1.179 12.59218 15.26884 -8.40534   5.991
 3.79 3.40 -1.109 -1.108 -1.106 -1.102 -1.097 12.69244 15.46912 -8.20516   6.725
 3.79 3.60 -1.026 -1.025 -1.023 -1.019 -1.013 12.79270 15.66936 -8.00499   7.547
 3.79 3.80 -0.942 -0.941 -0.938 -0.934 -0.928 12.89296 15.86954 -7.80482   8.470
 3.79 4.00 -0.856 -0.855 -0.853 -0.848 -0.842 12.99322 16.06967 -7.60467   9.506
 3.79 4.20 -0.769 -0.768 -0.765 -0.761 -0.754 13.09344 16.26969 -7.40464  10.669
 3.79 4.40 -0.680 -0.679 -0.677 -0.672 -0.665 13.19367 16.46971 -7.20460  11.974
 3.79 4.60 -0.590 -0.589 -0.587 -0.582 -0.575 13.29392 16.66979 -7.00453  13.440
 3.79 4.80 -0.499 -0.498 -0.496 -0.491 -0.484 13.39423 16.86991 -6.80443  15.085
 3.79 5.00 -0.407 -0.406 -0.404 -0.399 -0.392 13.49457 17.07004 -6.60433  16.931
 3.79 5.20 -0.313 -0.312 -0.310 -0.305 -0.299 13.59493 17.27005 -6.40427  19.005
 3.79 5.40 -0.218 -0.217 -0.215 -0.211 -0.204 13.69533 17.47007 -6.20422  21.334
 3.79 5.60 -0.121 -0.121 -0.119 -0.115 -0.109 13.79578 17.67014 -6.00411  23.950
 3.79 5.80 -0.024 -0.024 -0.022 -0.019 -0.013 13.89629 17.87039 -5.80385  26.889
 3.79 6.00  0.072  0.073  0.074  0.077  0.083 13.99682 18.07078 -5.60345  30.188
 3.79 6.25  0.193  0.193  0.195  0.197  0.203 14.12252 18.32161 -5.35265  34.888
 3.79 6.50  0.313  0.313  0.314  0.317  0.322 14.24822 18.57299 -5.10133  40.319
 3.79 6.75  0.430  0.431  0.432  0.434  0.439 14.37361 18.82536 -4.84892  46.580
 3.79 7.00  0.544  0.544  0.546  0.548  0.553 14.49859 19.07918 -4.59500  53.788
 3.79 7.25  0.651  0.651  0.652  0.655  0.659 14.62232 19.33600 -4.33820  62.024
 3.79 7.50  0.747  0.748  0.749  0.752  0.756 14.74445 19.59627 -4.07800  71.389
 3.79 7.75  0.828  0.829  0.830  0.832  0.837 14.86321 19.86190 -3.81242  81.850
 3.79 8.00  0.890  0.891  0.892  0.894  0.899 14.97918 20.13226 -3.54212  93.545
 3.82-2.00 -0.563 -0.563 -0.562 -0.560 -0.557  9.69810  9.77612-13.89825   0.207
 3.82-1.50 -0.608 -0.607 -0.606 -0.604 -0.601 10.16227 10.30406-13.37029   0.353
 3.82-1.00 -0.699 -0.698 -0.697 -0.695 -0.692 10.58365 10.85297-12.82131   0.573
 3.82-0.50 -0.831 -0.831 -0.830 -0.828 -0.825 10.95168 11.41027-12.26408   0.875
 3.82 0.00 -0.978 -0.978 -0.977 -0.975 -0.973 11.27416 11.95818-11.71602   1.269
 3.82 0.50 -1.109 -1.109 -1.108 -1.106 -1.104 11.56620 12.49108-11.18323   1.776
 3.82 1.00 -1.197 -1.196 -1.195 -1.194 -1.191 11.84023 13.01157-10.66274   2.435
 3.82 1.25 -1.217 -1.216 -1.215 -1.214 -1.211 11.97295 13.26838-10.40590   2.837
 3.82 1.50 -1.218 -1.218 -1.217 -1.215 -1.212 12.10380 13.52362-10.15064   3.298
 3.82 1.75 -1.200 -1.200 -1.199 -1.197 -1.193 12.23321 13.77757 -9.89664   3.828
 3.82 2.00 -1.164 -1.164 -1.163 -1.160 -1.157 12.36154 14.03060 -9.64359   4.438
 3.82 2.25 -1.112 -1.112 -1.110 -1.108 -1.105 12.48898 14.28290 -9.39132   5.139
 3.82 2.50 -1.047 -1.047 -1.045 -1.043 -1.039 12.61585 14.53466 -9.13960   5.947
 3.82 2.75 -0.972 -0.971 -0.970 -0.967 -0.963 12.74229 14.78602 -8.88831   6.879
 3.82 3.00 -0.889 -0.888 -0.887 -0.884 -0.880 12.86841 15.03703 -8.63733   7.955
 3.82 3.20 -0.818 -0.818 -0.816 -0.813 -0.809 12.96908 15.23756 -8.43676   8.932
 3.82 3.40 -0.745 -0.744 -0.743 -0.740 -0.735 13.06966 15.43801 -8.23628  10.029
 3.82 3.60 -0.669 -0.668 -0.667 -0.663 -0.658 13.17018 15.63839 -8.03588  11.259
 3.82 3.80 -0.592 -0.591 -0.589 -0.585 -0.580 13.27065 15.83874 -7.83553  12.639
 3.82 4.00 -0.512 -0.511 -0.510 -0.506 -0.500 13.37107 16.03902 -7.63526  14.188
 3.82 4.20 -0.431 -0.430 -0.429 -0.425 -0.419 13.47136 16.23914 -7.43513  15.925
 3.82 4.40 -0.349 -0.348 -0.346 -0.342 -0.336 13.57165 16.43927 -7.23501  17.874
 3.82 4.60 -0.265 -0.264 -0.262 -0.258 -0.252 13.67196 16.63943 -7.03490  20.063
 3.82 4.80 -0.179 -0.178 -0.177 -0.173 -0.166 13.77228 16.83962 -6.83480  22.520
 3.82 5.00 -0.092 -0.091 -0.089 -0.085 -0.079 13.87262 17.03981 -6.63470  25.277
 3.82 5.20 -0.003 -0.002  0.000  0.002  0.009 13.97297 17.23982 -6.43459  28.372
 3.82 5.40  0.086  0.087  0.089  0.093  0.099 14.07334 17.43983 -6.23448  31.846
 3.82 5.60  0.179  0.179  0.181  0.184  0.190 14.17373 17.63987 -6.03435  35.748
 3.82 5.80  0.272  0.273  0.274  0.277  0.283 14.27415 17.84000 -5.83417  40.129
 3.82 6.00  0.367  0.367  0.369  0.371  0.376 14.37457 18.04021 -5.63395  45.048
 3.82 6.25  0.485  0.485  0.487  0.489  0.494 14.50009 18.29063 -5.38356  52.054
 3.82 6.50  0.604  0.604  0.605  0.608  0.612 14.62562 18.54133 -5.13295  60.150
 3.82 6.75  0.722  0.722  0.723  0.725  0.730 14.75104 18.79254 -4.88172  69.494
 3.82 7.00  0.838  0.839  0.840  0.842  0.846 14.87628 19.04454 -4.62967  80.269
 3.82 7.25  0.951  0.952  0.953  0.955  0.959 15.00074 19.29824 -4.37600  92.636
 3.82 7.50  1.059  1.059  1.060  1.062  1.066 15.12418 19.55413 -4.12016 106.783
 3.82 7.75  1.155  1.156  1.157  1.159  1.162 15.24502 19.81418 -3.86011 122.728
 3.82 8.00  1.238  1.238  1.239  1.241  1.245 15.36380 20.07773 -3.59654 140.722
 3.85-2.00 -0.536 -0.536 -0.534 -0.532 -0.529  9.68458  9.73199-13.94233   0.197
 3.85-1.50 -0.534 -0.534 -0.533 -0.530 -0.526 10.17696 10.23855-13.43569   0.347
 3.85-1.00 -0.538 -0.537 -0.536 -0.534 -0.530 10.65533 10.75656-12.91757   0.601
 3.85-0.50 -0.561 -0.561 -0.560 -0.558 -0.554 11.10209 11.29469-12.37966   1.006
 3.85 0.00 -0.616 -0.616 -0.615 -0.613 -0.611 11.49859 11.84997-11.82420   1.588
 3.85 0.50 -0.687 -0.686 -0.686 -0.684 -0.682 11.84354 12.40449-11.26986   2.362
 3.85 1.00 -0.740 -0.740 -0.739 -0.738 -0.735 12.15014 12.94537-10.72886   3.361
 3.85 1.25 -0.753 -0.752 -0.752 -0.750 -0.748 12.29352 13.21013-10.46408   3.964
 3.85 1.50 -0.753 -0.752 -0.752 -0.750 -0.748 12.43249 13.47188-10.20232   4.652
 3.85 1.75 -0.740 -0.739 -0.738 -0.737 -0.734 12.56800 13.73100 -9.94319   5.437
 3.85 2.00 -0.713 -0.713 -0.712 -0.710 -0.708 12.70096 13.98807 -9.68613   6.337
 3.85 2.25 -0.674 -0.674 -0.673 -0.671 -0.668 12.83187 14.24339 -9.43087   7.368
 3.85 2.50 -0.624 -0.623 -0.622 -0.620 -0.617 12.96137 14.49748 -9.17685   8.553
 3.85 2.75 -0.563 -0.563 -0.562 -0.560 -0.557 13.08985 14.75066 -8.92376   9.916
 3.85 3.00 -0.495 -0.494 -0.493 -0.491 -0.488 13.21748 15.00303 -8.67142  11.485
 3.85 3.20 -0.435 -0.434 -0.433 -0.431 -0.428 13.31903 15.20431 -8.47001  12.910
 3.85 3.40 -0.372 -0.371 -0.370 -0.368 -0.364 13.42031 15.40537 -8.26886  14.507
 3.85 3.60 -0.305 -0.305 -0.304 -0.301 -0.297 13.52136 15.60629 -8.06794  16.298
 3.85 3.80 -0.237 -0.236 -0.235 -0.232 -0.228 13.62228 15.80709 -7.86716  18.305
 3.85 4.00 -0.166 -0.165 -0.164 -0.161 -0.156 13.72305 16.00775 -7.66655  20.557
 3.85 4.20 -0.093 -0.092 -0.091 -0.087 -0.083 13.82366 16.20820 -7.46612  23.082
 3.85 4.40 -0.018 -0.017 -0.016 -0.012 -0.007 13.92424 16.40854 -7.26578  25.916
 3.85 4.60  0.058  0.058  0.060  0.063  0.068 14.02479 16.60874 -7.06553  29.095
 3.85 4.80  0.136  0.137  0.138  0.142  0.147 14.12533 16.80888 -6.86532  32.664
 3.85 5.00  0.216  0.217  0.219  0.222  0.227 14.22583 17.00903 -6.66514  36.669
 3.85 5.20  0.299  0.300  0.301  0.304  0.310 14.32623 17.20926 -6.46499  41.164
 3.85 5.40  0.383  0.384  0.385  0.388  0.394 14.42663 17.40949 -6.26483  46.210
 3.85 5.60  0.470  0.470  0.472  0.475  0.479 14.52708 17.60966 -6.06467  51.877
 3.85 5.80  0.558  0.559  0.560  0.562  0.567 14.62759 17.80977 -5.86451  58.240
 3.85 6.00  0.648  0.649  0.650  0.652  0.656 14.72811 18.00988 -5.66434  65.386
 3.85 6.25  0.762  0.762  0.763  0.765  0.769 14.85378 18.26015 -5.41410  75.566
 3.85 6.50  0.877  0.878  0.879  0.881  0.884 14.97946 18.51055 -5.16380  87.330
 3.85 6.75  0.993  0.994  0.995  0.997  1.000 15.10510 18.76111 -4.91318 100.923
 3.85 7.00  1.110  1.110  1.111  1.113  1.117 15.23070 19.01199 -4.66214 116.626
 3.85 7.25  1.226  1.226  1.227  1.229  1.232 15.35591 19.26385 -4.41034 134.711
 3.85 7.50  1.340  1.340  1.341  1.343  1.346 15.48058 19.51693 -4.15739 155.502
 3.85 7.75  1.447  1.447  1.448  1.450  1.453 15.60360 19.77252 -3.90177 179.162
 3.85 8.00  1.546  1.547  1.547  1.549  1.552 15.72534 20.03020 -3.64397 206.119
 3.88-2.00 -0.534 -0.534 -0.533 -0.531 -0.528  9.65744  9.69932-13.97511   0.184
 3.88-1.50 -0.525 -0.524 -0.523 -0.521 -0.516 10.15594 10.20058-13.47366   0.327
 3.88-1.00 -0.504 -0.503 -0.502 -0.499 -0.494 10.65138 10.70475-12.96940   0.578
 3.88-0.50 -0.465 -0.465 -0.463 -0.460 -0.456 11.13767 11.21643-12.45780   1.012
 3.88 0.00 -0.415 -0.414 -0.413 -0.411 -0.407 11.60097 11.74492-11.92922   1.725
 3.88 0.50 -0.372 -0.372 -0.371 -0.369 -0.366 12.02119 12.29425-11.38007   2.799
 3.88 1.00 -0.343 -0.343 -0.342 -0.341 -0.339 12.38810 12.85150-10.82275   4.270
 3.88 1.25 -0.329 -0.329 -0.329 -0.327 -0.325 12.55346 13.12671-10.54752   5.165
 3.88 1.50 -0.312 -0.312 -0.311 -0.310 -0.308 12.70978 13.39898-10.27523   6.184
 3.88 1.75 -0.290 -0.290 -0.290 -0.288 -0.286 12.85831 13.66702-10.00720   7.339
 3.88 2.00 -0.263 -0.262 -0.262 -0.260 -0.258 13.00130 13.93166 -9.74256   8.653
 3.88 2.25 -0.228 -0.228 -0.227 -0.226 -0.224 13.13995 14.19295 -9.48126  10.149
 3.88 2.50 -0.187 -0.187 -0.186 -0.185 -0.182 13.27531 14.45179 -9.22243  11.859
 3.88 2.75 -0.139 -0.139 -0.138 -0.137 -0.134 13.40799 14.70860 -8.96563  13.817
 3.88 3.00 -0.085 -0.084 -0.084 -0.082 -0.079 13.53883 14.96383 -8.71041  16.063
 3.88 3.20 -0.037 -0.036 -0.035 -0.034 -0.031 13.64246 15.16702 -8.50723  18.098
 3.88 3.40  0.014  0.015  0.015  0.017  0.020 13.74542 15.36962 -8.30464  20.375
 3.88 3.60  0.069  0.070  0.071  0.073  0.076 13.84770 15.57169 -8.10261  22.923
 3.88 3.80  0.127  0.128  0.129  0.131  0.135 13.94958 15.77339 -7.90094  25.778
 3.88 4.00  0.188  0.189  0.190  0.192  0.196 14.05115 15.97474 -7.69962  28.977
 3.88 4.20  0.252  0.252  0.253  0.256  0.260 14.15255 16.17579 -7.49858  32.561
 3.88 4.40  0.317  0.318  0.319  0.322  0.326 14.25375 16.37663 -7.29773  36.581
 3.88 4.60  0.385  0.386  0.387  0.390  0.394 14.35472 16.57728 -7.09701  41.090
 3.88 4.80  0.455  0.456  0.457  0.460  0.464 14.45555 16.77781 -6.89641  46.150
 3.88 5.00  0.527  0.528  0.529  0.532  0.536 14.55630 16.97823 -6.69594  51.828
 3.88 5.20  0.601  0.602  0.603  0.606  0.610 14.65698 17.17858 -6.49566  58.198
 3.88 5.40  0.678  0.679  0.680  0.682  0.687 14.75767 17.37888 -6.29542  65.350
 3.88 5.60  0.757  0.758  0.759  0.761  0.765 14.85839 17.57910 -6.09522  73.382
 3.88 5.80  0.839  0.839  0.840  0.842  0.846 14.95917 17.77929 -5.89504  82.402
 3.88 6.00  0.922  0.923  0.924  0.926  0.929 15.05994 17.97946 -5.69486  92.532
 3.88 6.25  1.029  1.030  1.030  1.032  1.036 15.18574 18.22966 -5.44465 106.967
 3.88 6.50  1.139  1.140  1.140  1.142  1.145 15.31154 18.47986 -5.19443 123.659
 3.88 6.75  1.251  1.252  1.252  1.254  1.257 15.43763 18.73020 -4.94408 142.967
 3.88 7.00  1.365  1.366  1.366  1.368  1.371 15.56372 18.98069 -4.69357 165.289
 3.88 7.25  1.481  1.481  1.481  1.483  1.486 15.68957 19.23147 -4.44278 191.061
 3.88 7.50  1.596  1.596  1.597  1.598  1.601 15.81511 19.48273 -4.19152 220.791
 3.88 7.75  1.710  1.710  1.710  1.712  1.714 15.93976 19.73532 -3.93893 254.860
 3.88 8.00  1.820  1.820  1.820  1.822  1.824 16.06371 19.98896 -3.68529 293.938
 3.91-2.00 -0.536 -0.536 -0.535 -0.534 -0.532  9.62808  9.66876-14.00551   0.172
 3.91-1.50 -0.528 -0.527 -0.527 -0.525 -0.522 10.12775 10.16909-13.50529   0.306
 3.91-1.00 -0.508 -0.507 -0.506 -0.503 -0.499 10.62675 10.66997-13.00428   0.543
 3.91-0.50 -0.461 -0.460 -0.458 -0.455 -0.450 11.12353 11.17290-12.50155   0.962
 3.91 0.00 -0.371 -0.370 -0.368 -0.365 -0.360 11.61426 11.68106-11.99311   1.693
 3.91 0.50 -0.237 -0.236 -0.235 -0.233 -0.229 12.08778 12.20249-11.47186   2.920
 3.91 1.00 -0.087 -0.086 -0.085 -0.084 -0.081 12.52556 12.74484-10.92959   4.833
 3.91 1.25 -0.018 -0.017 -0.017 -0.015 -0.013 12.72476 13.02315-10.65117   6.079
 3.91 1.50  0.043  0.044  0.044  0.046  0.048 12.91126 13.30146-10.37274   7.535
 3.91 1.75  0.097  0.098  0.098  0.100  0.102 13.08455 13.57849-10.09573   9.198
 3.91 2.00  0.147  0.147  0.148  0.149  0.151 13.24748 13.85388 -9.82045  11.095
 3.91 2.25  0.192  0.192  0.193  0.194  0.196 13.40115 14.12452 -9.54975  13.243
 3.91 2.50  0.236  0.237  0.237  0.239  0.241 13.54814 14.39164 -9.28258  15.686
 3.91 2.75  0.281  0.281  0.282  0.283  0.285 13.68977 14.65518 -9.01910  18.464
 3.91 3.00  0.328  0.328  0.329  0.331  0.333 13.82743 14.91587 -8.75845  21.634
 3.91 3.20  0.368  0.368  0.369  0.370  0.373 13.93518 15.12250 -8.55178  24.492
 3.91 3.40  0.410  0.410  0.411  0.413  0.415 14.04150 15.32795 -8.34628  27.681
 3.91 3.60  0.455  0.455  0.456  0.458  0.460 14.14648 15.53231 -8.14189  31.237
 3.91 3.80  0.503  0.503  0.504  0.506  0.508 14.25060 15.73590 -7.93828  35.215
 3.91 4.00  0.553  0.553  0.554  0.556  0.559 14.35392 15.93877 -7.73542  39.662
 3.91 4.20  0.606  0.606  0.607  0.609  0.612 14.45660 16.14101 -7.53322  44.638
 3.91 4.40  0.661  0.662  0.663  0.665  0.668 14.55885 16.34282 -7.33143  50.215
 3.91 4.60  0.719  0.720  0.721  0.723  0.726 14.66067 16.54425 -7.13002  56.462
 3.91 4.80  0.780  0.780  0.781  0.783  0.787 14.76224 16.74543 -6.92885  63.468
 3.91 5.00  0.842  0.843  0.844  0.846  0.850 14.86362 16.94636 -6.72793  71.327
 3.91 5.20  0.908  0.908  0.909  0.911  0.915 14.96490 17.14709 -6.52725  80.141
 3.91 5.40  0.975  0.976  0.977  0.979  0.982 15.06606 17.34769 -6.32668  90.037
 3.91 5.60  1.046  1.046  1.047  1.049  1.052 15.16709 17.54815 -6.12618 101.146
 3.91 5.80  1.119  1.119  1.120  1.122  1.125 15.26806 17.74851 -5.92574 113.623
 3.91 6.00  1.195  1.195  1.196  1.197  1.200 15.36903 17.94880 -5.72538 127.639
 3.91 6.25  1.293  1.293  1.294  1.295  1.298 15.49533 18.19907 -5.47518 147.617
 3.91 6.50  1.395  1.395  1.396  1.397  1.400 15.62170 18.44933 -5.22497 170.726
 3.91 6.75  1.501  1.501  1.501  1.503  1.505 15.74818 18.69959 -4.97474 197.484
 3.91 7.00  1.609  1.610  1.610  1.611  1.614 15.87466 18.94988 -4.72446 228.435
 3.91 7.25  1.721  1.721  1.722  1.723  1.725 16.00108 19.20024 -4.47410 264.233
 3.91 7.50  1.835  1.835  1.836  1.837  1.839 16.12743 19.45071 -4.22359 305.632
 3.91 7.75  1.950  1.950  1.950  1.951  1.953 16.25328 19.70167 -3.97260 353.283
 3.91 8.00  2.064  2.065  2.065  2.066  2.068 16.37876 19.95299 -3.72125 408.180
 3.94-2.00 -0.537 -0.537 -0.537 -0.536 -0.535  9.59835  9.63839-14.03583   0.161
 3.94-1.50 -0.532 -0.532 -0.531 -0.530 -0.528 10.09795 10.13862-13.53566   0.285
 3.94-1.00 -0.517 -0.516 -0.516 -0.514 -0.511 10.59781 10.63889-13.03536   0.507
 3.94-0.50 -0.478 -0.478 -0.476 -0.474 -0.469 11.09691 11.13956-12.53477   0.901
 3.94 0.00 -0.392 -0.392 -0.390 -0.387 -0.381 11.59484 11.64167-12.03264   1.599
 3.94 0.50 -0.237 -0.237 -0.235 -0.232 -0.227 12.08778 12.14768-11.52651   2.820
 3.94 1.00 -0.013 -0.013 -0.012 -0.009 -0.005 12.56785 12.66455-11.00971   4.901
 3.94 1.25  0.112  0.113  0.114  0.116  0.119 12.79733 12.93034-10.74392   6.384
 3.94 1.50  0.238  0.239  0.239  0.241  0.244 13.01745 13.20085-10.47340   8.226
 3.94 1.75  0.352  0.353  0.353  0.355  0.358 13.22426 13.47809-10.19607  10.437
 3.94 2.00  0.452  0.453  0.453  0.455  0.457 13.41847 13.75549 -9.91865  13.051
 3.94 2.25  0.535  0.535  0.536  0.537  0.540 13.59844 14.03299 -9.64118  16.056
 3.94 2.50  0.605  0.605  0.606  0.607  0.610 13.76716 14.31048 -9.36371  19.498
 3.94 2.75  0.664  0.664  0.665  0.666  0.669 13.92551 14.58328 -9.09095  23.400
 3.94 3.00  0.718  0.718  0.719  0.720  0.722 14.07628 14.85266 -8.82160  27.837
 3.94 3.20  0.758  0.758  0.759  0.760  0.762 14.19228 15.06517 -8.60914  31.811
 3.94 3.40  0.797  0.797  0.798  0.799  0.802 14.30535 15.27570 -8.39864  36.231
 3.94 3.60  0.837  0.837  0.838  0.839  0.841 14.41560 15.48424 -8.19009  41.132
 3.94 3.80  0.877  0.878  0.878  0.880  0.882 14.52396 15.69129 -7.98301  46.598
 3.94 4.00  0.919  0.920  0.921  0.922  0.925 14.63063 15.89697 -7.77728  52.688
 3.94 4.20  0.963  0.964  0.965  0.966  0.969 14.73597 16.10148 -7.57275  59.483
 3.94 4.40  1.010  1.010  1.011  1.012  1.015 14.84039 16.30517 -7.36906  67.083
 3.94 4.60  1.058  1.058  1.059  1.061  1.064 14.94396 16.50810 -7.16617  75.579
 3.94 4.80  1.109  1.109  1.110  1.112  1.115 15.04698 16.71052 -6.96383  85.098
 3.94 5.00  1.162  1.162  1.163  1.165  1.168 15.14953 16.91243 -6.76195  95.763
 3.94 5.20  1.218  1.218  1.219  1.221  1.224 15.25167 17.11393 -6.56045 107.715
 3.94 5.40  1.276  1.276  1.277  1.279  1.282 15.35360 17.31514 -6.35921 121.128
 3.94 5.60  1.337  1.338  1.338  1.340  1.343 15.45535 17.51610 -6.15820 136.178
 3.94 5.80  1.401  1.401  1.402  1.404  1.406 15.55700 17.71689 -5.95737 153.080
 3.94 6.00  1.468  1.468  1.469  1.470  1.473 15.65858 17.91751 -5.75671 172.068
 3.94 6.25  1.556  1.556  1.557  1.558  1.560 15.78548 18.16804 -5.50622 199.133
 3.94 6.50  1.649  1.649  1.649  1.650  1.653 15.91238 18.41847 -5.25579 230.456
 3.94 6.75  1.746  1.746  1.746  1.747  1.749 16.03937 18.66886 -5.00536 266.741
 3.94 7.00  1.847  1.847  1.848  1.849  1.850 16.16643 18.91918 -4.75498 308.764
 3.94 7.25  1.953  1.953  1.953  1.954  1.956 16.29361 19.16940 -4.50480 357.447
 3.94 7.50  2.062  2.062  2.063  2.063  2.065 16.42078 19.41963 -4.25461 413.805
 3.94 7.75  2.174  2.174  2.175  2.175  2.177 16.54772 19.66997 -4.00433 478.917
 3.94 8.00  2.288  2.289  2.289  2.290  2.291 16.67449 19.92039 -3.75399 554.172
 3.97-2.00 -0.534 -0.534 -0.534 -0.533 -0.532  9.57019  9.60681-14.06748   0.150
 3.97-1.50 -0.534 -0.533 -0.533 -0.532 -0.531 10.06893 10.10789-13.56639   0.267
 3.97-1.00 -0.524 -0.524 -0.524 -0.522 -0.520 10.56820 10.60863-13.06570   0.474
 3.97-0.50 -0.497 -0.496 -0.495 -0.493 -0.490 11.06781 11.10890-12.56527   0.842
 3.97 0.00 -0.428 -0.427 -0.426 -0.423 -0.418 11.56714 11.60959-12.06469   1.496
 3.97 0.50 -0.287 -0.286 -0.285 -0.281 -0.276 12.06521 12.11126-11.56304   2.654
 3.97 1.00 -0.055 -0.054 -0.053 -0.050 -0.044 12.55955 12.61637-11.05789   4.690
 3.97 1.25  0.092  0.093  0.094  0.097  0.102 12.80318 12.87187-10.80239   6.209
 3.97 1.50  0.256  0.257  0.258  0.261  0.265 13.04297 13.13033-10.54394   8.183
 3.97 1.75  0.425  0.425  0.426  0.428  0.432 13.27594 13.39390-10.28036  10.700
 3.97 2.00  0.587  0.587  0.588  0.590  0.594 13.50065 13.66219-10.01207  13.858
 3.97 2.25  0.731  0.732  0.733  0.734  0.737 13.71264 13.93721 -9.73714  17.689
 3.97 2.50  0.856  0.856  0.857  0.858  0.861 13.91233 14.21405 -9.46030  22.263
 3.97 2.75  0.956  0.956  0.957  0.958  0.961 14.09762 14.49219 -9.18204  27.558
 3.97 3.00  1.039  1.039  1.040  1.041  1.043 14.27114 14.77034 -8.90379  33.652
 3.97 3.20  1.094  1.094  1.095  1.096  1.098 14.40169 14.98987 -8.68429  39.108
 3.97 3.40  1.143  1.143  1.143  1.145  1.147 14.52689 15.20736 -8.46686  45.171
 3.97 3.60  1.187  1.187  1.188  1.189  1.191 14.64689 15.42243 -8.25180  51.862
 3.97 3.80  1.228  1.229  1.229  1.231  1.233 14.76325 15.63506 -8.03914  59.296
 3.97 4.00  1.269  1.269  1.270  1.271  1.273 14.87633 15.84559 -7.82857  67.541
 3.97 4.20  1.309  1.309  1.309  1.311  1.313 14.98674 16.05413 -7.62011  76.700
 3.97 4.40  1.349  1.349  1.350  1.351  1.354 15.09531 16.26120 -7.41311  86.915
 3.97 4.60  1.391  1.391  1.392  1.393  1.396 15.20216 16.46684 -7.20750  98.292
 3.97 4.80  1.434  1.435  1.435  1.437  1.439 15.30790 16.67147 -7.00286 111.015
 3.97 5.00  1.480  1.480  1.481  1.482  1.484 15.41263 16.87518 -6.79915 125.238
 3.97 5.20  1.527  1.527  1.528  1.529  1.532 15.51654 17.07811 -6.59623 141.151
 3.97 5.40  1.577  1.577  1.578  1.579  1.582 15.61994 17.28049 -6.39385 158.995
 3.97 5.60  1.629  1.630  1.630  1.631  1.634 15.72285 17.48235 -6.19195 178.993
 3.97 5.80  1.684  1.685  1.685  1.686  1.688 15.82549 17.68386 -5.99038 201.444
 3.97 6.00  1.742  1.743  1.743  1.744  1.746 15.92794 17.88508 -5.78915 226.657
 3.97 6.25  1.819  1.819  1.820  1.821  1.823 16.05575 18.13630 -5.53804 262.577
 3.97 6.50  1.901  1.902  1.902  1.903  1.905 16.18356 18.38721 -5.28718 304.189
 3.97 6.75  1.989  1.989  1.989  1.990  1.992 16.31137 18.63786 -5.03649 352.407
 3.97 7.00  2.081  2.082  2.082  2.083  2.084 16.43918 18.88835 -4.78595 408.285
 3.97 7.25  2.179  2.179  2.180  2.180  2.182 16.56717 19.13870 -4.53555 473.123
 3.97 7.50  2.282  2.282  2.282  2.283  2.284 16.69522 19.38899 -4.28525 548.290
 3.97 7.75  2.389  2.389  2.389  2.390  2.391 16.82331 19.63925 -4.03503 635.416
 3.97 8.00  2.500  2.500  2.500  2.500  2.501 16.95144 19.88947 -3.78489 736.414
 4.00-2.00 -0.518 -0.518 -0.518 -0.517 -0.517  9.54937  9.56820-14.10607   0.142
 4.00-1.50 -0.526 -0.526 -0.526 -0.525 -0.524 10.04376 10.07335-13.60085   0.250
 4.00-1.00 -0.526 -0.526 -0.525 -0.524 -0.523 10.54033 10.57680-13.09751   0.443
 4.00-0.50 -0.509 -0.509 -0.508 -0.507 -0.505 11.03862 11.07809-12.59602   0.787
 4.00 0.00 -0.459 -0.459 -0.458 -0.456 -0.453 11.53795 11.57887-12.09539   1.398
 4.00 0.50 -0.345 -0.345 -0.343 -0.341 -0.336 12.03703 12.07954-11.59482   2.483
 4.00 1.00 -0.136 -0.135 -0.133 -0.130 -0.125 12.53555 12.58115-11.09318   4.407
 4.00 1.25  0.008  0.008  0.010  0.013  0.019 12.78371 12.83287-10.84147   5.864
 4.00 1.50  0.176  0.177  0.178  0.182  0.187 13.03060 13.08565-10.58872   7.792
 4.00 1.75  0.363  0.363  0.365  0.368  0.373 13.27506 13.34046-10.33389  10.325
 4.00 2.00  0.559  0.560  0.561  0.564  0.568 13.51614 13.59791-10.07639  13.630
 4.00 2.25  0.754  0.754  0.755  0.757  0.761 13.75095 13.86003 -9.81417  17.861
 4.00 2.50  0.937  0.937  0.938  0.940  0.944 13.97814 14.12678 -9.54729  23.200
 4.00 2.75  1.098  1.099  1.099  1.101  1.104 14.19340 14.40044 -9.27361  29.726
 4.00 3.00  1.236  1.236  1.237  1.239  1.241 14.39672 14.67669 -8.99740  37.568
 4.00 3.20  1.326  1.327  1.327  1.329  1.331 14.54875 14.89942 -8.77477  44.753
 4.00 3.40  1.403  1.404  1.404  1.405  1.408 14.69305 15.12214 -8.55213  52.839
 4.00 3.60  1.468  1.468  1.469  1.470  1.472 14.82937 15.34385 -8.33047  61.816
 4.00 3.80  1.523  1.523  1.524  1.525  1.527 14.95927 15.56311 -8.11120  71.787
 4.00 4.00  1.572  1.572  1.573  1.574  1.576 15.08350 15.78046 -7.89381  82.826
 4.00 4.20  1.616  1.616  1.616  1.618  1.619 15.20281 15.99483 -7.67945  95.026
 4.00 4.40  1.657  1.657  1.658  1.659  1.660 15.31867 16.20707 -7.46722 108.588
 4.00 4.60  1.696  1.697  1.697  1.698  1.700 15.43124 16.41716 -7.25714 123.611
 4.00 4.80  1.736  1.736  1.736  1.737  1.739 15.54163 16.62552 -7.04876 140.356
 4.00 5.00  1.776  1.776  1.776  1.777  1.779 15.65002 16.83232 -6.84194 159.005
 4.00 5.20  1.817  1.817  1.817  1.818  1.820 15.75676 17.03772 -6.63652 179.801
 4.00 5.40  1.859  1.859  1.860  1.861  1.863 15.86244 17.24215 -6.43208 203.067
 4.00 5.60  1.904  1.904  1.905  1.906  1.907 15.96709 17.44568 -6.22854 229.074
 4.00 5.80  1.951  1.952  1.952  1.953  1.954 16.07113 17.64859 -6.02564 258.227
 4.00 6.00  2.002  2.002  2.002  2.003  2.004 16.17464 17.85089 -5.82333 290.911
 4.00 6.25  2.068  2.068  2.069  2.069  2.071 16.30347 18.10303 -5.57114 337.410
 4.00 6.50  2.140  2.140  2.141  2.141  2.142 16.43201 18.35468 -5.31948 391.215
 4.00 6.75  2.218  2.218  2.218  2.219  2.220 16.56030 18.60601 -5.06824 453.486
 4.00 7.00  2.301  2.301  2.302  2.302  2.303 16.68860 18.85703 -4.81730 525.669
 4.00 7.25  2.391  2.391  2.391  2.391  2.392 16.81701 19.10777 -4.56660 609.422
 4.00 7.50  2.486  2.486  2.486  2.487  2.487 16.94557 19.35832 -4.31605 706.642
 4.00 7.75  2.586  2.587  2.587  2.587  2.588 17.07465 19.60874 -4.06562 819.839
 4.00 8.00  2.692  2.692  2.692  2.693  2.693 17.20412 19.85902 -3.81531 951.584
 4.05-2.00 -0.500 -0.500 -0.500 -0.499 -0.498  9.50826  9.50961-14.16475   0.128
 4.05-1.50 -0.501 -0.501 -0.500 -0.500 -0.499 10.00732 10.01072-13.66354   0.226
 4.05-1.00 -0.503 -0.503 -0.502 -0.502 -0.501 10.50420 10.51362-13.16071   0.401
 4.05-0.50 -0.503 -0.503 -0.503 -0.502 -0.501 10.99900 11.01870-12.65561   0.709
 4.05 0.00 -0.487 -0.487 -0.486 -0.485 -0.484 11.49346 11.52388-12.15040   1.254
 4.05 0.50 -0.425 -0.425 -0.424 -0.423 -0.420 11.98994 12.02694-11.64724   2.220
 4.05 1.00 -0.280 -0.279 -0.278 -0.276 -0.272 12.48827 12.52866-11.14563   3.941
 4.05 1.25 -0.165 -0.165 -0.163 -0.161 -0.157 12.73761 12.77923-10.89509   5.251
 4.05 1.50 -0.021 -0.020 -0.019 -0.016 -0.011 12.98695 13.02979-10.64455   6.997
 4.05 1.75  0.151  0.152  0.153  0.156  0.162 13.23598 13.28068-10.39363   9.320
 4.05 2.00  0.348  0.349  0.350  0.354  0.359 13.48458 13.53199-10.14225  12.408
 4.05 2.25  0.562  0.562  0.564  0.567  0.572 13.73202 13.78424 -9.88997  16.498
 4.05 2.50  0.783  0.784  0.785  0.788  0.793 13.97786 14.03783 -9.63639  21.895
 4.05 2.75  1.007  1.008  1.009  1.011  1.015 14.22059 14.29411 -9.38013  28.954
 4.05 3.00  1.225  1.225  1.226  1.228  1.232 14.45909 14.55364 -9.12062  38.102
 4.05 3.20  1.389  1.389  1.390  1.392  1.395 14.64444 14.76519 -8.90903  47.166
 4.05 3.40  1.541  1.541  1.542  1.543  1.546 14.82410 14.97974 -8.69444  58.005
 4.05 3.60  1.676  1.676  1.677  1.678  1.680 14.99684 15.19853 -8.47569  70.770
 4.05 3.80  1.793  1.794  1.794  1.795  1.797 15.16099 15.41972 -8.25456  85.493
 4.05 4.00  1.895  1.895  1.896  1.897  1.898 15.31723 15.64147 -8.03283 102.343
 4.05 4.20  1.978  1.978  1.979  1.980  1.981 15.46410 15.86358 -7.81072 121.193
 4.05 4.40  2.050  2.050  2.050  2.051  2.052 15.60371 16.08568 -7.58861 142.323
 4.05 4.60  2.110  2.110  2.111  2.111  2.112 15.73596 16.30640 -7.36786 165.728
 4.05 4.80  2.163  2.163  2.163  2.164  2.165 15.86253 16.52413 -7.15008 191.730
 4.05 5.00  2.210  2.210  2.211  2.211  2.212 15.98412 16.73973 -6.93442 220.542
 4.05 5.20  2.254  2.254  2.254  2.255  2.256 16.10153 16.95257 -6.72156 252.452
 4.05 5.40  2.296  2.296  2.296  2.297  2.298 16.21597 17.16343 -6.51071 287.997
 4.05 5.60  2.338  2.338  2.338  2.339  2.339 16.32755 17.37232 -6.30191 327.478
 4.05 5.80  2.380  2.380  2.380  2.380  2.381 16.43730 17.57970 -6.09465 371.589
 4.05 6.00  2.423  2.423  2.423  2.424  2.424 16.54543 17.78569 -5.88874 420.857
 4.05 6.25  2.479  2.479  2.479  2.480  2.480 16.67886 18.04153 -5.63285 490.731
 4.05 6.50  2.539  2.539  2.540  2.540  2.540 16.81104 18.29601 -5.37830 571.409
 4.05 6.75  2.604  2.604  2.604  2.604  2.605 16.94212 18.54938 -5.12485 664.609
 4.05 7.00  2.674  2.674  2.674  2.674  2.675 17.07298 18.80195 -4.87225 772.689
 4.05 7.25  2.749  2.749  2.749  2.750  2.750 17.20372 19.05389 -4.62037 898.062
 4.05 7.50  2.831  2.831  2.831  2.832  2.832 17.33445 19.30535 -4.368961043.776
 4.05 7.75  2.920  2.920  2.920  2.920  2.920 17.46548 19.55649 -4.117851213.740
 4.05 8.00  3.015  3.015  3.015  3.015  3.015 17.59671 19.80726 -3.867101411.850
 4.10-2.00 -0.497 -0.497 -0.497 -0.496 -0.495  9.45894  9.45894-14.21531   0.114
 4.10-1.50 -0.496 -0.496 -0.495 -0.495 -0.493  9.95876  9.95904-13.71534   0.202
 4.10-1.00 -0.494 -0.494 -0.494 -0.493 -0.491 10.45864 10.45924-13.21503   0.360
 4.10-0.50 -0.490 -0.490 -0.489 -0.489 -0.487 10.95794 10.95985-12.71444   0.639
 4.10 0.00 -0.478 -0.478 -0.477 -0.477 -0.475 11.45637 11.46150-12.21275   1.134
 4.10 0.50 -0.445 -0.445 -0.444 -0.443 -0.441 11.95250 11.96520-11.70908   2.008
 4.10 1.00 -0.362 -0.362 -0.361 -0.360 -0.357 12.44685 12.47071-11.20350   3.547
 4.10 1.25 -0.289 -0.289 -0.288 -0.286 -0.283 12.69414 12.72322-10.95098   4.715
 4.10 1.50 -0.190 -0.189 -0.188 -0.186 -0.183 12.94161 12.97548-10.69875   6.270
 4.10 1.75 -0.059 -0.059 -0.058 -0.056 -0.052 13.18993 13.22701-10.44719   8.345
 4.10 2.00  0.100  0.101  0.102  0.104  0.108 13.43854 13.47828-10.19593  11.110
 4.10 2.25  0.289  0.289  0.291  0.293  0.298 13.68743 13.72932 -9.94497  14.796
 4.10 2.50  0.500  0.501  0.502  0.505  0.509 13.93631 13.98037 -9.69401  19.705
 4.10 2.75  0.729  0.729  0.730  0.733  0.737 14.18467 14.23184 -9.44249  26.228
 4.10 3.00  0.966  0.967  0.968  0.970  0.974 14.43233 14.48387 -9.19031  34.883
 4.10 3.20  1.157  1.158  1.159  1.161  1.165 14.62926 14.68658 -8.98763  43.760
 4.10 3.40  1.348  1.348  1.349  1.351  1.354 14.82466 14.89057 -8.78372  54.799
 4.10 3.60  1.534  1.535  1.535  1.537  1.540 15.01806 15.09628 -8.57807  68.464
 4.10 3.80  1.714  1.714  1.715  1.716  1.718 15.20772 15.30471 -8.36961  85.169
 4.10 4.00  1.884  1.884  1.885  1.886  1.887 15.39357 15.51574 -8.15851 105.487
 4.10 4.20  2.038  2.039  2.039  2.040  2.041 15.57276 15.73105 -7.94312 129.655
 4.10 4.40  2.178  2.178  2.178  2.179  2.180 15.74511 15.94892 -7.72519 158.114
 4.10 4.60  2.298  2.299  2.299  2.299  2.300 15.90946 16.17005 -7.50408 191.058
 4.10 4.80  2.401  2.401  2.401  2.402  2.403 16.06502 16.39252 -7.28166 228.547
 4.10 5.00  2.489  2.490  2.490  2.490  2.491 16.21272 16.61500 -7.05923 270.921
 4.10 5.20  2.562  2.562  2.563  2.563  2.563 16.35208 16.83627 -6.83797 318.040
 4.10 5.40  2.626  2.626  2.627  2.627  2.627 16.48517 17.05629 -6.61792 370.676
 4.10 5.60  2.683  2.683  2.683  2.683  2.684 16.61200 17.27430 -6.39996 428.948
 4.10 5.80  2.734  2.734  2.734  2.734  2.735 16.73431 17.48955 -6.18481 493.825
 4.10 6.00  2.783  2.783  2.783  2.783  2.784 16.85266 17.70260 -5.97184 565.936
 4.10 6.25  2.841  2.842  2.842  2.842  2.842 16.99623 17.96556 -5.70872 667.634
 4.10 6.50  2.901  2.901  2.901  2.901  2.901 17.13640 18.22583 -5.44831 784.540
 4.10 6.75  2.961  2.961  2.961  2.961  2.962 17.27387 18.48387 -5.19026 919.066
 4.10 7.00  3.025  3.025  3.025  3.025  3.025 17.40977 18.74013 -4.934051074.712
 4.10 7.25  3.093  3.093  3.093  3.093  3.093 17.54429 18.99486 -4.679391254.722
 4.10 7.50  3.166  3.166  3.166  3.166  3.166 17.67861 19.24846 -4.425851464.564
 4.10 7.75  3.245  3.245  3.245  3.245  3.245 17.81286 19.50128 -4.173081709.382
 4.10 8.00  3.330  3.330  3.330  3.330  3.330 17.94699 19.75320 -3.921181994.888
 4.15-2.00 -0.498 -0.497 -0.497 -0.497 -0.496  9.40892  9.40892-14.26536   0.101
 4.15-1.50 -0.495 -0.495 -0.494 -0.494 -0.492  9.90886  9.90891-13.76523   0.180
 4.15-1.00 -0.492 -0.491 -0.491 -0.490 -0.488 10.40892 10.40909-13.26528   0.321
 4.15-0.50 -0.487 -0.487 -0.486 -0.485 -0.483 10.90875 10.90902-12.76523   0.570
 4.15 0.00 -0.479 -0.479 -0.478 -0.477 -0.474 11.40858 11.40926-12.26504   1.013
 4.15 0.50 -0.457 -0.457 -0.456 -0.455 -0.452 11.90816 11.90961-11.76472   1.801
 4.15 1.00 -0.401 -0.401 -0.400 -0.398 -0.395 12.40705 12.41078-11.26344   3.198
 4.15 1.25 -0.350 -0.350 -0.349 -0.347 -0.344 12.65584 12.66197-11.01230   4.259
 4.15 1.50 -0.279 -0.279 -0.278 -0.276 -0.273 12.90412 12.91366-10.76070   5.669
 4.15 1.75 -0.186 -0.186 -0.185 -0.183 -0.179 13.15159 13.16614-10.50818   7.538
 4.15 2.00 -0.069 -0.069 -0.068 -0.065 -0.062 13.39881 13.41880-10.25547  10.020
 4.15 2.25  0.073  0.074  0.075  0.077  0.081 13.64584 13.67157-10.00265  13.316
 4.15 2.50  0.243  0.243  0.244  0.246  0.250 13.89287 13.92433 -9.74982  17.696
 4.15 2.75  0.439  0.439  0.440  0.442  0.446 14.14069 14.17652 -9.49774  23.537
 4.15 3.00  0.657  0.657  0.658  0.660  0.664 14.38863 14.42846 -9.24588  31.312
 4.15 3.20  0.845  0.845  0.846  0.848  0.852 14.58705 14.62980 -9.04455  39.349
 4.15 3.40  1.040  1.040  1.041  1.043  1.046 14.78547 14.83114 -8.84323  49.450
 4.15 3.60  1.240  1.240  1.241  1.242  1.245 14.98365 15.03273 -8.64164  62.125
 4.15 3.80  1.441  1.442  1.442  1.444  1.446 15.18097 15.23511 -8.43922  77.971
 4.15 4.00  1.640  1.640  1.640  1.642  1.644 15.37749 15.43823 -8.23605  97.767
 4.15 4.20  1.835  1.835  1.836  1.837  1.839 15.57195 15.64300 -8.03130 122.297
 4.15 4.40  2.026  2.026  2.026  2.027  2.028 15.76382 15.84972 -7.82462 152.525
 4.15 4.60  2.207  2.207  2.207  2.208  2.209 15.95232 16.05911 -7.61525 189.487
 4.15 4.80  2.375  2.375  2.376  2.376  2.377 16.13530 16.27188 -7.40243 233.918
 4.15 5.00  2.530  2.530  2.530  2.531  2.531 16.31281 16.48756 -7.18669 286.957
 4.15 5.20  2.664  2.665  2.665  2.665  2.665 16.48190 16.70770 -6.96643 348.618
 4.15 5.40  2.783  2.783  2.783  2.783  2.784 16.64332 16.92864 -6.74546 419.817
 4.15 5.60  2.884  2.884  2.884  2.884  2.884 16.79625 17.15037 -6.52379 500.674
 4.15 5.80  2.969  2.969  2.969  2.970  2.970 16.94121 17.37227 -6.30196 591.665
 4.15 6.00  3.045  3.045  3.045  3.046  3.046 17.07918 17.59417 -6.08014 693.577
 4.15 6.25  3.126  3.126  3.126  3.126  3.126 17.24260 17.86721 -5.80705 837.114
 4.15 6.50  3.200  3.200  3.200  3.200  3.200 17.39863 18.13704 -5.537151001.789
 4.15 6.75  3.269  3.269  3.269  3.269  3.269 17.54847 18.40304 -5.271191190.343
 4.15 7.00  3.337  3.337  3.337  3.337  3.337 17.69417 18.66596 -5.008331407.705
 4.15 7.25  3.405  3.405  3.405  3.405  3.406 17.83645 18.92600 -4.748371658.301
 4.15 7.50  3.477  3.477  3.477  3.477  3.477 17.97708 19.18384 -4.490531949.731
 4.15 7.75  3.552  3.552  3.552  3.552  3.552 18.11686 19.44005 -4.234222290.052
 4.15 8.00  3.631  3.631  3.632  3.632  3.632 18.25551 19.69443 -3.979642686.224
 4.20-2.00 -0.499 -0.498 -0.498 -0.498 -0.497  9.35889  9.35889-14.31534   0.090
 4.20-1.50 -0.497 -0.497 -0.496 -0.496 -0.495  9.85884  9.85890-13.81531   0.161
 4.20-1.00 -0.493 -0.493 -0.493 -0.492 -0.491 10.35889 10.35889-13.31533   0.286
 4.20-0.50 -0.487 -0.487 -0.486 -0.485 -0.484 10.85878 10.85896-12.81531   0.508
 4.20 0.00 -0.478 -0.478 -0.477 -0.476 -0.474 11.35870 11.35908-12.31524   0.903
 4.20 0.50 -0.463 -0.463 -0.462 -0.460 -0.457 11.85866 11.85908-11.81531   1.606
 4.20 1.00 -0.429 -0.429 -0.428 -0.426 -0.422 12.35851 12.35927-11.31498   2.856
 4.20 1.25 -0.397 -0.397 -0.396 -0.393 -0.389 12.60836 12.60943-11.06486   3.807
 4.20 1.50 -0.349 -0.349 -0.348 -0.345 -0.341 12.85812 12.85968-10.81474   5.075
 4.20 1.75 -0.282 -0.281 -0.280 -0.278 -0.273 13.10767 13.11012-10.56428   6.764
 4.20 2.00 -0.191 -0.190 -0.189 -0.187 -0.182 13.35698 13.36078-10.31354   9.015
 4.20 2.25 -0.075 -0.074 -0.073 -0.071 -0.066 13.60594 13.61183-10.06252  12.007
 4.20 2.50  0.065  0.066  0.067  0.069  0.074 13.85443 13.86332 -9.81107  15.982
 4.20 2.75  0.231  0.231  0.232  0.235  0.239 14.10206 14.11562 -9.55872  21.255
 4.20 3.00  0.418  0.418  0.419  0.421  0.425 14.34928 14.36829 -9.30601  28.254
 4.20 3.20  0.582  0.582  0.583  0.585  0.589 14.54674 14.57070 -9.10359  35.465
 4.20 3.40  0.757  0.758  0.758  0.760  0.764 14.74419 14.77310 -8.90118  44.515
 4.20 3.60  0.943  0.943  0.944  0.945  0.948 14.94179 14.97534 -8.69892  55.886
 4.20 3.80  1.137  1.138  1.138  1.140  1.142 15.13953 15.17742 -8.49683  70.174
 4.20 4.00  1.338  1.338  1.338  1.339  1.342 15.33726 15.37949 -8.29473  88.115
 4.20 4.20  1.543  1.543  1.544  1.545  1.546 15.53479 15.58171 -8.09253 110.617
 4.20 4.40  1.750  1.750  1.751  1.751  1.753 15.73202 15.78416 -7.89014 138.817
 4.20 4.60  1.955  1.955  1.956  1.956  1.958 15.92858 15.98722 -7.68713 174.067
 4.20 4.80  2.157  2.157  2.157  2.158  2.159 16.12336 16.19179 -7.48256 217.814
 4.20 5.00  2.355  2.355  2.355  2.355  2.356 16.31639 16.39777 -7.27654 271.999
 4.20 5.20  2.543  2.543  2.543  2.543  2.544 16.50553 16.60659 -7.06769 338.183
 4.20 5.40  2.721  2.721  2.721  2.721  2.721 16.69026 16.81812 -6.85613 418.353
 4.20 5.60  2.883  2.883  2.883  2.883  2.884 16.86952 17.03331 -6.64092 514.277
 4.20 5.80  3.028  3.028  3.028  3.028  3.028 17.04140 17.25152 -6.42271 626.811
 4.20 6.00  3.157  3.157  3.158  3.158  3.158 17.20629 17.47159 -6.20266 757.839
 4.20 6.25  3.291  3.291  3.291  3.291  3.291 17.39997 17.74906 -5.92524 947.157
 4.20 6.50  3.407  3.407  3.407  3.407  3.407 17.58241 18.02653 -5.647821168.530
 4.20 6.75  3.503  3.503  3.503  3.503  3.503 17.75381 18.30122 -5.373111423.384
 4.20 7.00  3.591  3.591  3.591  3.591  3.591 17.91709 18.57334 -5.100951717.741
 4.20 7.25  3.671  3.671  3.671  3.671  3.671 18.07325 18.84136 -4.832862056.270
 4.20 7.50  3.750  3.750  3.750  3.750  3.751 18.22505 19.10619 -4.567992449.083
 4.20 7.75  3.829  3.829  3.829  3.829  3.829 18.37419 19.36820 -4.306012907.769
 4.20 8.00  3.910  3.910  3.910  3.910  3.910 18.52009 19.62726 -4.047013439.314
 4.25-2.00 -0.498 -0.498 -0.498 -0.497 -0.497  9.30899  9.30899-14.36532   0.081
 4.25-1.50 -0.497 -0.497 -0.497 -0.496 -0.496  9.80889  9.80889-13.86550   0.143
 4.25-1.00 -0.495 -0.495 -0.494 -0.494 -0.493 10.30878 10.30899-13.36532   0.255
 4.25-0.50 -0.489 -0.489 -0.489 -0.488 -0.487 10.80882 10.80895-12.86519   0.453
 4.25 0.00 -0.479 -0.479 -0.479 -0.478 -0.477 11.30878 11.30899-12.36522   0.805
 4.25 0.50 -0.465 -0.465 -0.465 -0.464 -0.462 11.80875 11.80902-11.86519   1.431
 4.25 1.00 -0.441 -0.440 -0.440 -0.438 -0.435 12.30878 12.30921-11.36512   2.545
 4.25 1.25 -0.420 -0.419 -0.418 -0.416 -0.413 12.55866 12.55921-11.11515   3.394
 4.25 1.50 -0.388 -0.388 -0.387 -0.384 -0.380 12.80855 12.80922-10.86519   4.526
 4.25 1.75 -0.343 -0.343 -0.341 -0.339 -0.334 13.05845 13.05929-10.61504   6.035
 4.25 2.00 -0.280 -0.279 -0.278 -0.275 -0.269 13.30835 13.30942-10.36482   8.046
 4.25 2.25 -0.195 -0.194 -0.193 -0.190 -0.184 13.55816 13.55961-10.11456  10.727
 4.25 2.50 -0.085 -0.085 -0.083 -0.080 -0.075 13.80787 13.80990 -9.86423  14.300
 4.25 2.75  0.051  0.052  0.053  0.056  0.061 14.05738 14.06038 -9.61377  19.059
 4.25 3.00  0.216  0.216  0.217  0.220  0.225 14.30664 14.31112 -9.36311  25.396
 4.25 3.20  0.367  0.367  0.368  0.371  0.376 14.50575 14.51200 -9.16228  31.938
 4.25 3.40  0.532  0.532  0.533  0.535  0.540 14.70453 14.71320 -8.96113  40.150
 4.25 3.60  0.708  0.708  0.709  0.711  0.715 14.90284 14.91486 -8.75947  50.448
 4.25 3.80  0.892  0.893  0.893  0.895  0.898 15.10068 15.11695 -8.55736  63.355
 4.25 4.00  1.082  1.082  1.083  1.084  1.087 15.29820 15.31931 -8.35497  79.535
 4.25 4.20  1.278  1.278  1.279  1.280  1.282 15.49547 15.52190 -8.15241  99.807
 4.25 4.40  1.478  1.478  1.478  1.479  1.481 15.69257 15.72461 -7.94972 125.225
 4.25 4.60  1.682  1.682  1.682  1.683  1.684 15.88958 15.92738 -7.74696 157.104
 4.25 4.80  1.890  1.890  1.890  1.891  1.892 16.08644 16.13024 -7.54408 197.077
 4.25 5.00  2.100  2.100  2.100  2.100  2.101 16.28308 16.33325 -7.34104 247.170
 4.25 5.20  2.309  2.309  2.310  2.310  2.311 16.47881 16.53699 -7.13724 309.645
 4.25 5.40  2.515  2.515  2.516  2.516  2.516 16.67332 16.74170 -6.93248 387.350
 4.25 5.60  2.716  2.716  2.716  2.716  2.717 16.86596 16.94795 -6.72621 483.516
 4.25 5.80  2.909  2.909  2.909  2.909  2.909 17.05494 17.15683 -6.51738 601.049
 4.25 6.00  3.092  3.092  3.092  3.092  3.092 17.24030 17.36810 -6.30619 744.056
 4.25 6.25  3.295  3.295  3.295  3.295  3.295 17.46316 17.63751 -6.03684 961.648
 4.25 6.50  3.477  3.477  3.477  3.477  3.477 17.67615 17.91041 -5.763971228.833
 4.25 6.75  3.627  3.627  3.627  3.627  3.627 17.87631 18.18715 -5.487191547.457
 4.25 7.00  3.758  3.758  3.758  3.758  3.759 18.06558 18.46390 -5.210421924.366
 4.25 7.25  3.869  3.869  3.869  3.869  3.869 18.24382 18.73906 -4.935272362.407
 4.25 7.50  3.971  3.971  3.971  3.971  3.971 18.41397 19.01241 -4.661942873.342
 4.25 7.75  4.063  4.063  4.063  4.063  4.063 18.57816 19.28169 -4.392643471.177
 4.25 8.00  4.155  4.155  4.155  4.155  4.155 18.73568 19.54765 -4.126624161.591
 4.30-2.00 -0.494 -0.494 -0.494 -0.494 -0.493  9.26007  9.25768-14.41657   0.072
 4.30-1.50 -0.495 -0.495 -0.495 -0.494 -0.493  9.75929  9.75846-13.91578   0.128
 4.30-1.00 -0.494 -0.494 -0.494 -0.493 -0.492 10.25912 10.25888-13.41544   0.227
 4.30-0.50 -0.491 -0.491 -0.490 -0.490 -0.489 10.75884 10.75891-12.91542   0.404
 4.30 0.00 -0.483 -0.482 -0.482 -0.482 -0.480 11.25888 11.25888-12.41533   0.718
 4.30 0.50 -0.467 -0.467 -0.467 -0.466 -0.465 11.75876 11.75899-11.91542   1.276
 4.30 1.00 -0.444 -0.444 -0.444 -0.443 -0.441 12.25864 12.25912-11.41522   2.269
 4.30 1.25 -0.428 -0.428 -0.428 -0.427 -0.425 12.50861 12.50913-11.16513   3.025
 4.30 1.50 -0.406 -0.406 -0.406 -0.404 -0.402 12.75861 12.75914-10.91507   4.034
 4.30 1.75 -0.375 -0.375 -0.374 -0.373 -0.369 13.00862 13.00925-10.66503   5.379
 4.30 2.00 -0.331 -0.330 -0.329 -0.327 -0.323 13.25864 13.25935-10.41499   7.173
 4.30 2.25 -0.269 -0.269 -0.268 -0.265 -0.261 13.50851 13.50936-10.16485   9.564
 4.30 2.50 -0.187 -0.187 -0.186 -0.183 -0.177 13.75838 13.75937 -9.91471  12.752
 4.30 2.75 -0.081 -0.081 -0.079 -0.076 -0.070 14.00827 14.00957 -9.66463  17.003
 4.30 3.00  0.051  0.051  0.053  0.056  0.062 14.25816 14.25983 -9.41454  22.670
 4.30 3.20  0.178  0.179  0.180  0.183  0.189 14.45790 14.46004 -9.21439  28.533
 4.30 3.40  0.324  0.324  0.325  0.328  0.334 14.65754 14.66029 -9.01415  35.908
 4.30 3.60  0.486  0.487  0.488  0.490  0.495 14.85709 14.86063 -8.81377  45.184
 4.30 3.80  0.663  0.663  0.664  0.667  0.671 15.05651 15.06120 -8.61314  56.845
 4.30 4.00  0.851  0.851  0.851  0.853  0.857 15.25576 15.26198 -8.41229  71.499
 4.30 4.20  1.047  1.047  1.048  1.049  1.052 15.45455 15.46317 -8.21113  89.887
 4.30 4.40  1.248  1.248  1.248  1.249  1.252 15.65293 15.66474 -8.00959 112.951
 4.30 4.60  1.451  1.451  1.451  1.452  1.454 15.85085 15.86676 -7.80756 141.855
 4.30 4.80  1.657  1.657  1.657  1.658  1.659 16.04828 16.06922 -7.60501 178.052
 4.30 5.00  1.863  1.863  1.863  1.864  1.865 16.24527 16.27207 -7.40209 223.374
 4.30 5.20  2.072  2.072  2.072  2.073  2.074 16.44192 16.47519 -7.19894 280.134
 4.30 5.40  2.283  2.283  2.283  2.283  2.284 16.63805 16.67874 -6.99539 351.112
 4.30 5.60  2.495  2.495  2.495  2.496  2.496 16.83374 16.88267 -6.79150 439.842
 4.30 5.80  2.707  2.707  2.707  2.708  2.708 17.02861 17.08728 -6.58696 550.448
 4.30 6.00  2.916  2.916  2.916  2.916  2.916 17.22246 17.29270 -6.38164 688.035
 4.30 6.25  3.166  3.166  3.166  3.166  3.166 17.46094 17.55219 -6.12219 905.439
 4.30 6.50  3.404  3.404  3.404  3.404  3.404 17.69452 17.81491 -5.859491184.864
 4.30 6.75  3.615  3.615  3.615  3.615  3.615 17.91976 18.08306 -5.591331535.559
 4.30 7.00  3.807  3.807  3.807  3.807  3.807 18.13609 18.35468 -5.319661969.734
 4.30 7.25  3.968  3.968  3.968  3.968  3.968 18.34049 18.63032 -5.043972492.564
 4.30 7.50  4.113  4.113  4.113  4.113  4.113 18.53479 18.90596 -4.768283117.686
 4.30 7.75  4.235  4.235  4.235  4.235  4.235 18.71980 19.18042 -4.493853857.796
 4.30 8.00  4.350  4.350  4.350  4.350  4.350 18.89526 19.45408 -4.220264721.092
 4.35-2.00 -0.469 -0.469 -0.469 -0.468 -0.467  9.22246  9.19507-14.47925   0.067
 4.35-1.50 -0.478 -0.478 -0.477 -0.477 -0.476  9.71767  9.69992-13.97429   0.117
 4.35-1.00 -0.485 -0.485 -0.485 -0.484 -0.483 10.21299 10.20466-13.46954   0.205
 4.35-0.50 -0.488 -0.488 -0.487 -0.487 -0.485 10.71037 10.70731-12.96698   0.362
 4.35 0.00 -0.484 -0.484 -0.483 -0.483 -0.481 11.20925 11.20844-12.46585   0.641
 4.35 0.50 -0.472 -0.472 -0.471 -0.470 -0.469 11.70893 11.70885-11.96537   1.138
 4.35 1.00 -0.448 -0.448 -0.448 -0.447 -0.445 12.20871 12.20898-11.46521   2.022
 4.35 1.25 -0.432 -0.431 -0.431 -0.430 -0.428 12.45868 12.45904-11.21529   2.696
 4.35 1.50 -0.412 -0.412 -0.411 -0.410 -0.409 12.70868 12.70910-10.96537   3.596
 4.35 1.75 -0.387 -0.387 -0.386 -0.385 -0.383 12.95869 12.95917-10.71523   4.795
 4.35 2.00 -0.354 -0.354 -0.353 -0.352 -0.350 13.20871 13.20925-10.46509   6.393
 4.35 2.25 -0.309 -0.309 -0.308 -0.307 -0.304 13.45861 13.45926-10.21503   8.525
 4.35 2.50 -0.248 -0.248 -0.248 -0.246 -0.243 13.70851 13.70927 -9.96497  11.367
 4.35 2.75 -0.167 -0.167 -0.166 -0.164 -0.160 13.95847 13.95939 -9.71484  15.157
 4.35 3.00 -0.062 -0.062 -0.061 -0.059 -0.054 14.20844 14.20951 -9.46471  20.211
 4.35 3.20  0.041  0.042  0.042  0.045  0.050 14.40826 14.40962 -9.26465  25.441
 4.35 3.40  0.164  0.165  0.166  0.168  0.174 14.60809 14.60972 -9.06460  32.024
 4.35 3.60  0.306  0.307  0.307  0.310  0.315 14.80792 14.80986 -8.86448  40.308
 4.35 3.80  0.466  0.466  0.467  0.469  0.475 15.00778 15.01006 -8.66425  50.735
 4.35 4.00  0.640  0.640  0.641  0.643  0.648 15.20763 15.21032 -8.46395  63.855
 4.35 4.20  0.827  0.828  0.828  0.830  0.834 15.40726 15.41065 -8.26363  80.356
 4.35 4.40  1.024  1.024  1.025  1.026  1.030 15.60671 15.61111 -8.06321 101.106
 4.35 4.60  1.228  1.228  1.228  1.229  1.232 15.80602 15.81176 -7.86260 127.188
 4.35 4.80  1.436  1.437  1.437  1.438  1.440 16.00508 16.01275 -7.66161 159.946
 4.35 5.00  1.648  1.648  1.648  1.649  1.650 16.20385 16.21405 -7.46030 201.070
 4.35 5.20  1.861  1.861  1.861  1.862  1.863 16.40204 16.41577 -7.25857 252.599
 4.35 5.40  2.075  2.075  2.075  2.076  2.077 16.59967 16.61797 -7.05636 317.131
 4.35 5.60  2.289  2.289  2.289  2.290  2.290 16.79672 16.82071 -6.85357 397.893
 4.35 5.80  2.504  2.504  2.504  2.504  2.504 16.99305 17.02410 -6.65010 498.824
 4.35 6.00  2.719  2.719  2.719  2.719  2.720 17.18865 17.22814 -6.44600 624.828
 4.35 6.25  2.988  2.988  2.988  2.988  2.989 17.43211 17.48405 -6.19018 826.958
 4.35 6.50  3.252  3.252  3.252  3.252  3.252 17.67367 17.74147 -5.932931092.034
 4.35 6.75  3.503  3.503  3.503  3.504  3.504 17.91184 18.00143 -5.672941436.462
 4.35 7.00  3.743  3.743  3.743  3.743  3.743 18.14551 18.26435 -5.409941879.760
 4.35 7.25  3.958  3.958  3.958  3.958  3.958 18.37130 18.53197 -5.142372437.914
 4.35 7.50  4.154  4.154  4.154  4.154  4.154 18.58894 18.80277 -4.871603132.394
 4.35 7.75  4.322  4.322  4.322  4.322  4.322 18.79634 19.07603 -4.598323977.283
 4.35 8.00  4.475  4.475  4.475  4.475  4.475 18.99419 19.35199 -4.322304994.742
 4.40-2.00 -0.460 -0.460 -0.460 -0.460 -0.458  9.17696  9.14019-14.53402   0.060
 4.40-1.50 -0.460 -0.460 -0.460 -0.460 -0.458  9.67633  9.64068-14.03362   0.107
 4.40-1.00 -0.462 -0.462 -0.461 -0.461 -0.459 10.17522 10.14208-13.53210   0.190
 4.40-0.50 -0.465 -0.465 -0.465 -0.464 -0.463 10.67201 10.64532-13.02896   0.335
 4.40 0.00 -0.470 -0.470 -0.470 -0.469 -0.467 11.16732 11.15045-12.52375   0.586
 4.40 0.50 -0.469 -0.469 -0.469 -0.467 -0.465 11.66266 11.65504-12.01923   1.027
 4.40 1.00 -0.453 -0.453 -0.453 -0.451 -0.449 12.16017 12.15776-11.51670   1.811
 4.40 1.25 -0.438 -0.438 -0.438 -0.436 -0.434 12.40957 12.40826-11.26609   2.409
 4.40 1.50 -0.418 -0.418 -0.417 -0.416 -0.414 12.65916 12.65858-11.01570   3.208
 4.40 1.75 -0.393 -0.393 -0.392 -0.391 -0.389 12.90885 12.90881-10.76545   4.275
 4.40 2.00 -0.362 -0.362 -0.362 -0.361 -0.358 13.15866 13.15897-10.51527   5.699
 4.40 2.25 -0.324 -0.324 -0.324 -0.323 -0.321 13.40862 13.40907-10.26517   7.599
 4.40 2.50 -0.276 -0.276 -0.276 -0.275 -0.272 13.65858 13.65915-10.01507  10.132
 4.40 2.75 -0.213 -0.213 -0.213 -0.212 -0.209 13.90847 13.90921 -9.76496  13.510
 4.40 3.00 -0.131 -0.131 -0.131 -0.129 -0.126 14.15836 14.15927 -9.51485  18.015
 4.40 3.20 -0.048 -0.047 -0.047 -0.045 -0.042 14.35830 14.35936 -9.31479  22.677
 4.40 3.40  0.053  0.053  0.053  0.055  0.059 14.55823 14.55948 -9.11474  28.546
 4.40 3.60  0.173  0.174  0.174  0.176  0.180 14.75817 14.75960 -8.91466  35.933
 4.40 3.80  0.314  0.314  0.315  0.316  0.320 14.95812 14.95973 -8.71456  45.232
 4.40 4.00  0.472  0.472  0.473  0.474  0.478 15.15806 15.15987 -8.51442  56.937
 4.40 4.20  0.646  0.646  0.647  0.649  0.652 15.35785 15.36002 -8.31426  71.665
 4.40 4.40  0.833  0.833  0.834  0.835  0.839 15.55759 15.56020 -8.11406  90.198
 4.40 4.60  1.029  1.030  1.030  1.031  1.035 15.75730 15.76045 -7.91381 113.519
 4.40 4.80  1.234  1.234  1.234  1.235  1.238 15.95696 15.96085 -7.71346 142.857
 4.40 5.00  1.443  1.443  1.443  1.444  1.446 16.15655 16.16137 -7.51300 179.758
 4.40 5.20  1.657  1.657  1.657  1.658  1.660 16.35591 16.36199 -7.31238 226.134
 4.40 5.40  1.874  1.874  1.874  1.874  1.876 16.55501 16.56283 -7.11152 284.389
 4.40 5.60  2.092  2.092  2.093  2.093  2.094 16.75381 16.76398 -6.91033 357.523
 4.40 5.80  2.313  2.313  2.313  2.313  2.314 16.95209 16.96569 -6.70862 449.201
 4.40 6.00  2.533  2.533  2.533  2.533  2.534 17.14983 17.16791 -6.50640 564.040
 4.40 6.25  2.809  2.809  2.809  2.809  2.809 17.39582 17.42168 -6.25273 748.696
 4.40 6.50  3.085  3.085  3.085  3.085  3.085 17.64038 17.67669 -5.99783 992.182
 4.40 6.75  3.357  3.357  3.357  3.357  3.357 17.88329 17.93316 -5.741331312.386
 4.40 7.00  3.621  3.621  3.621  3.621  3.621 18.12385 18.19145 -5.482941731.282
 4.40 7.25  3.871  3.871  3.871  3.871  3.871 18.36099 18.45210 -5.222182274.696
 4.40 7.50  4.108  4.108  4.108  4.108  4.108 18.59362 18.71559 -4.958612973.127
 4.40 7.75  4.320  4.320  4.320  4.320  4.320 18.81862 18.98303 -4.691213852.369
 4.40 8.00  4.517  4.517  4.517  4.517  4.517 19.03703 19.25406 -4.420334954.153
 4.45-2.00 -0.459 -0.459 -0.459 -0.459 -0.458  9.12710  9.08991-14.58436   0.054
 4.45-1.50 -0.459 -0.459 -0.459 -0.458 -0.457  9.62696  9.58995-14.08428   0.096
 4.45-1.00 -0.458 -0.458 -0.458 -0.458 -0.456 10.12711 10.09026-13.58419   0.171
 4.45-0.50 -0.457 -0.457 -0.457 -0.456 -0.455 10.62665 10.59028-13.08397   0.303
 4.45 0.00 -0.456 -0.456 -0.455 -0.455 -0.453 11.12613 11.09096-12.58319   0.538
 4.45 0.50 -0.452 -0.452 -0.452 -0.451 -0.449 11.62418 11.59306-12.08118   0.951
 4.45 1.00 -0.444 -0.443 -0.443 -0.442 -0.439 12.12024 12.09726-11.57708   1.669
 4.45 1.25 -0.434 -0.434 -0.434 -0.432 -0.429 12.36773 12.34988-11.32445   2.207
 4.45 1.50 -0.419 -0.419 -0.418 -0.417 -0.414 12.61521 12.60249-11.07181   2.919
 4.45 1.75 -0.398 -0.397 -0.397 -0.395 -0.392 12.86306 12.85471-10.81962   3.865
 4.45 2.00 -0.369 -0.369 -0.368 -0.367 -0.363 13.11126 13.10653-10.56783   5.124
 4.45 2.25 -0.332 -0.332 -0.332 -0.330 -0.327 13.36018 13.35754-10.31677   6.807
 4.45 2.50 -0.288 -0.288 -0.287 -0.286 -0.283 13.60949 13.60821-10.06606   9.054
 4.45 2.75 -0.233 -0.233 -0.233 -0.232 -0.229 13.85917 13.85860 -9.81559  12.056
 4.45 3.00 -0.165 -0.165 -0.165 -0.163 -0.161 14.10890 14.10890 -9.56527  16.063
 4.45 3.20 -0.097 -0.097 -0.096 -0.095 -0.092 14.30869 14.30912 -9.36510  20.217
 4.45 3.40 -0.014 -0.014 -0.013 -0.012 -0.009 14.50850 14.50931 -9.16496  25.447
 4.45 3.60  0.086  0.086  0.087  0.088  0.091 14.70838 14.70942 -8.96484  32.032
 4.45 3.80  0.207  0.207  0.207  0.208  0.211 14.90830 14.90950 -8.76474  40.321
 4.45 4.00  0.346  0.346  0.346  0.348  0.350 15.10823 15.10958 -8.56463  50.756
 4.45 4.20  0.505  0.505  0.505  0.506  0.509 15.30807 15.30974 -8.36451  63.888
 4.45 4.40  0.679  0.679  0.679  0.680  0.683 15.50788 15.50992 -8.16437  80.416
 4.45 4.60  0.866  0.866  0.866  0.867  0.870 15.70768 15.71012 -7.96419 101.218
 4.45 4.80  1.063  1.063  1.063  1.064  1.067 15.90746 15.91034 -7.76395 127.399
 4.45 5.00  1.267  1.267  1.268  1.269  1.270 16.10721 16.11059 -7.56368 160.347
 4.45 5.20  1.478  1.478  1.478  1.479  1.480 16.30693 16.31087 -7.36340 201.794
 4.45 5.40  1.692  1.692  1.692  1.693  1.694 16.50658 16.51121 -7.16307 253.924
 4.45 5.60  1.909  1.909  1.910  1.910  1.911 16.70612 16.71166 -6.96262 319.483
 4.45 5.80  2.130  2.130  2.130  2.130  2.131 16.90543 16.91235 -6.76192 401.882
 4.45 6.00  2.352  2.352  2.352  2.352  2.353 17.10449 17.11328 -6.56098 505.406
 4.45 6.25  2.632  2.632  2.633  2.633  2.633 17.35271 17.36501 -6.30926 672.591
 4.45 6.50  2.914  2.914  2.914  2.915  2.915 17.60010 17.61753 -6.05675 894.222
 4.45 6.75  3.197  3.197  3.197  3.197  3.197 17.84615 17.87129 -5.803031187.140
 4.45 7.00  3.478  3.478  3.478  3.478  3.478 18.09061 18.12646 -5.547911573.141
 4.45 7.25  3.751  3.751  3.751  3.751  3.751 18.33299 18.38336 -5.290982079.404
 4.45 7.50  4.013  4.013  4.013  4.013  4.013 18.57264 18.64237 -5.031942739.893
 4.45 7.75  4.256  4.256  4.256  4.256  4.256 18.80793 18.90426 -4.770053592.609
 4.45 8.00  4.487  4.487  4.487  4.487  4.487 19.03941 19.16879 -4.505574690.461
 4.50-2.00 -0.459 -0.459 -0.459 -0.459 -0.457  9.07700  9.03981-14.63433   0.048
 4.50-1.50 -0.459 -0.458 -0.458 -0.458 -0.456  9.57703  9.53995-14.13430   0.086
 4.50-1.00 -0.458 -0.458 -0.458 -0.457 -0.455 10.07700 10.03981-13.63433   0.152
 4.50-0.50 -0.457 -0.457 -0.457 -0.456 -0.454 10.57692 10.53995-13.13431   0.270
 4.50 0.00 -0.455 -0.455 -0.455 -0.454 -0.452 11.07700 11.04021-12.63414   0.481
 4.50 0.50 -0.452 -0.452 -0.451 -0.450 -0.448 11.57669 11.54020-12.13401   0.854
 4.50 1.00 -0.443 -0.443 -0.442 -0.441 -0.439 12.07628 12.04100-11.63339   1.517
 4.50 1.25 -0.435 -0.434 -0.434 -0.433 -0.430 12.32577 12.29151-11.38286   2.020
 4.50 1.50 -0.421 -0.421 -0.421 -0.420 -0.417 12.57496 12.54220-11.13206   2.686
 4.50 1.75 -0.401 -0.401 -0.401 -0.399 -0.397 12.82365 12.79373-10.88065   3.567
 4.50 2.00 -0.373 -0.373 -0.372 -0.371 -0.368 13.07188 13.04571-10.62875   4.729
 4.50 2.25 -0.336 -0.336 -0.335 -0.334 -0.331 13.31940 13.29822-10.37615   6.255
 4.50 2.50 -0.290 -0.290 -0.290 -0.288 -0.285 13.56691 13.55072-10.12355   8.273
 4.50 2.75 -0.237 -0.237 -0.237 -0.235 -0.232 13.81450 13.80312 -9.87111  10.946
 4.50 3.00 -0.175 -0.174 -0.174 -0.173 -0.170 14.06221 14.05538 -9.61889  14.489
 4.50 3.20 -0.115 -0.115 -0.114 -0.113 -0.110 14.26103 14.25662 -9.41767  18.164
 4.50 3.40 -0.044 -0.044 -0.044 -0.042 -0.040 14.46013 14.45760 -9.21672  22.792
 4.50 3.60  0.040  0.040  0.040  0.041  0.044 14.65955 14.65830 -9.01602  28.629
 4.50 3.80  0.142  0.142  0.142  0.143  0.146 14.85914 14.85882 -8.81549  35.988
 4.50 4.00  0.262  0.262  0.263  0.264  0.266 15.05881 15.05918 -8.61511  45.265
 4.50 4.20  0.403  0.403  0.404  0.405  0.407 15.25849 15.25938 -8.41490  56.966
 4.50 4.40  0.562  0.562  0.562  0.563  0.565 15.45823 15.45957 -8.21469  71.697
 4.50 4.60  0.736  0.736  0.737  0.738  0.740 15.65802 15.65980 -8.01447  90.242
 4.50 4.80  0.924  0.924  0.924  0.925  0.927 15.85784 15.86006 -7.81425 113.585
 4.50 5.00  1.121  1.121  1.121  1.122  1.123 16.05767 16.06032 -7.61404 142.966
 4.50 5.20  1.326  1.326  1.326  1.326  1.328 16.25744 16.26049 -7.41383 179.937
 4.50 5.40  1.536  1.536  1.536  1.536  1.538 16.45717 16.46066 -7.21361 226.457
 4.50 5.60  1.750  1.750  1.750  1.751  1.752 16.65688 16.66090 -7.01335 284.992
 4.50 5.80  1.968  1.968  1.968  1.968  1.969 16.85655 16.86131 -6.81294 358.631
 4.50 6.00  2.188  2.188  2.188  2.188  2.189 17.05614 17.06183 -6.61243 451.255
 4.50 6.25  2.467  2.467  2.467  2.467  2.468 17.30527 17.31262 -6.36164 601.174
 4.50 6.50  2.747  2.747  2.747  2.747  2.747 17.55400 17.56372 -6.11053 800.557
 4.50 6.75  3.033  3.033  3.033  3.033  3.033 17.80221 17.81554 -5.858721065.335
 4.50 7.00  3.320  3.320  3.320  3.320  3.320 18.04961 18.06819 -5.606071416.326
 4.50 7.25  3.605  3.605  3.605  3.605  3.606 18.29544 18.32203 -5.352221879.799
 4.50 7.50  3.887  3.887  3.887  3.887  3.887 18.53945 18.57738 -5.096862489.846
 4.50 7.75  4.155  4.155  4.155  4.155  4.155 18.78071 18.83507 -4.839153287.114
 4.50 8.00  4.408  4.408  4.408  4.408  4.408 19.01953 19.09482 -4.579384327.292
 4.55-2.00 -0.459 -0.459 -0.459 -0.459 -0.457  9.02694  8.98998-14.68424   0.043
 4.55-1.50 -0.459 -0.459 -0.459 -0.458 -0.457  9.52699  9.48996-14.18436   0.076
 4.55-1.00 -0.458 -0.458 -0.458 -0.457 -0.456 10.02694  9.98998-13.68424   0.136
 4.55-0.50 -0.457 -0.457 -0.457 -0.456 -0.455 10.52699 10.48996-13.18429   0.241
 4.55 0.00 -0.456 -0.455 -0.455 -0.455 -0.453 11.02694 10.99003-12.68424   0.429
 4.55 0.50 -0.453 -0.453 -0.453 -0.452 -0.450 11.52699 11.49010-12.18422   0.762
 4.55 1.00 -0.448 -0.448 -0.447 -0.446 -0.444 12.02694 11.99016-11.68403   1.355
 4.55 1.25 -0.443 -0.442 -0.442 -0.441 -0.438 12.27686 12.24020-11.43399   1.806
 4.55 1.50 -0.434 -0.434 -0.434 -0.433 -0.430 12.52673 12.49024-11.18396   2.408
 4.55 1.75 -0.421 -0.421 -0.421 -0.419 -0.416 12.77648 12.74046-10.93375   3.209
 4.55 2.00 -0.401 -0.401 -0.400 -0.399 -0.396 13.02612 12.99083-10.68340   4.276
 4.55 2.25 -0.370 -0.370 -0.369 -0.368 -0.365 13.27568 13.24133-10.43293   5.693
 4.55 2.50 -0.326 -0.326 -0.325 -0.324 -0.320 13.52505 13.49206-10.18224   7.574
 4.55 2.75 -0.267 -0.267 -0.266 -0.265 -0.261 13.77397 13.74337 -9.93098  10.061
 4.55 3.00 -0.193 -0.193 -0.192 -0.191 -0.187 14.02243 13.99515 -9.67923  13.346
 4.55 3.20 -0.125 -0.124 -0.124 -0.123 -0.120 14.22044 14.19710 -9.47719  16.696
 4.55 3.40 -0.050 -0.050 -0.049 -0.048 -0.045 14.41845 14.39909 -9.27514  20.886
 4.55 3.60  0.031  0.031  0.032  0.033  0.035 14.61649 14.60112 -9.07311  26.125
 4.55 3.80  0.123  0.124  0.124  0.125  0.127 14.81462 14.80315 -8.87112  32.677
 4.55 4.00  0.228  0.229  0.229  0.230  0.232 15.01284 15.00518 -8.66918  40.873
 4.55 4.20  0.350  0.350  0.351  0.352  0.354 15.21142 15.20658 -8.46779  51.211
 4.55 4.40  0.489  0.490  0.490  0.491  0.493 15.41024 15.40768 -8.26667  64.230
 4.55 4.60  0.646  0.646  0.646  0.647  0.649 15.60934 15.60845 -8.06584  80.661
 4.55 4.80  0.819  0.819  0.819  0.820  0.821 15.80867 15.80901 -7.86521 101.391
 4.55 5.00  1.004  1.004  1.004  1.004  1.006 16.00817 16.00945 -7.66474 127.523
 4.55 5.20  1.200  1.200  1.200  1.200  1.202 16.20785 16.20978 -7.46444 160.475
 4.55 5.40  1.403  1.403  1.403  1.403  1.404 16.40757 16.41011 -7.26414 201.948
 4.55 5.60  1.612  1.612  1.612  1.612  1.613 16.60734 16.61045 -7.06383 254.146
 4.55 5.80  1.825  1.825  1.825  1.825  1.826 16.80712 16.81079 -6.86350 319.838
 4.55 6.00  2.041  2.041  2.041  2.041  2.042 17.00690 17.01115 -6.66314 402.510
 4.55 6.25  2.316  2.316  2.316  2.316  2.317 17.25627 17.26166 -6.41262 536.421
 4.55 6.50  2.593  2.593  2.593  2.593  2.594 17.50542 17.51229 -6.16197 714.746
 4.55 6.75  2.872  2.872  2.872  2.872  2.873 17.75440 17.76321 -5.91105 952.081
 4.55 7.00  3.158  3.158  3.158  3.158  3.158 18.00303 18.01452 -5.659761267.669
 4.55 7.25  3.445  3.445  3.445  3.445  3.445 18.25099 18.26653 -5.407751686.427
 4.55 7.50  3.732  3.732  3.732  3.732  3.732 18.49804 18.51944 -5.154842241.035
 4.55 7.75  4.012  4.012  4.012  4.012  4.012 18.74324 18.77393 -4.900302971.954
 4.55 8.00  4.285  4.285  4.285  4.285  4.285 18.98691 19.02979 -4.644363934.445
 4.60-2.00 -0.459 -0.458 -0.458 -0.458 -0.456  8.97708  8.93997-14.73424   0.038
 4.60-1.50 -0.458 -0.458 -0.458 -0.458 -0.456  9.47698  9.43996-14.23433   0.068
 4.60-1.00 -0.458 -0.458 -0.458 -0.457 -0.456  9.97704  9.93997-13.73424   0.121
 4.60-0.50 -0.457 -0.457 -0.457 -0.457 -0.455 10.47698 10.43996-13.23433   0.215
 4.60 0.00 -0.457 -0.456 -0.456 -0.456 -0.454 10.97704 10.94002-12.73424   0.382
 4.60 0.50 -0.455 -0.455 -0.454 -0.454 -0.452 11.47698 11.43996-12.23426   0.679
 4.60 1.00 -0.451 -0.451 -0.451 -0.450 -0.448 11.97699 11.94007-11.73424   1.208
 4.60 1.25 -0.448 -0.448 -0.447 -0.446 -0.444 12.22691 12.19009-11.48422   1.610
 4.60 1.50 -0.443 -0.443 -0.442 -0.441 -0.439 12.47683 12.44012-11.23418   2.147
 4.60 1.75 -0.435 -0.435 -0.435 -0.433 -0.431 12.72684 12.69016-10.98409   2.863
 4.60 2.00 -0.423 -0.423 -0.422 -0.421 -0.418 12.97685 12.94022-10.73400   3.817
 4.60 2.25 -0.404 -0.403 -0.403 -0.402 -0.398 13.22671 13.19031-10.48394   5.089
 4.60 2.50 -0.374 -0.374 -0.373 -0.372 -0.368 13.47654 13.44044-10.23388   6.783
 4.60 2.75 -0.330 -0.330 -0.330 -0.328 -0.324 13.72637 13.69065 -9.98366   9.040
 4.60 3.00 -0.270 -0.269 -0.269 -0.267 -0.263 13.97617 13.94097 -9.73330  12.044
 4.60 3.20 -0.206 -0.206 -0.206 -0.204 -0.200 14.17577 14.14137 -9.53289  15.143
 4.60 3.40 -0.129 -0.129 -0.128 -0.127 -0.123 14.37517 14.34196 -9.33231  19.029
 4.60 3.60 -0.037 -0.037 -0.036 -0.035 -0.031 14.57435 14.54283 -9.13144  23.893
 4.60 3.80  0.069  0.069  0.069  0.071  0.074 14.77323 14.74407 -8.93019  29.969
 4.60 4.00  0.187  0.188  0.188  0.189  0.192 14.97183 14.94562 -8.72862  37.555
 4.60 4.20  0.317  0.317  0.317  0.318  0.321 15.16985 15.14772 -8.52655  46.970
 4.60 4.40  0.455  0.455  0.456  0.457  0.458 15.36786 15.34982 -8.32448  58.745
 4.60 4.60  0.603  0.603  0.603  0.604  0.606 15.56588 15.55189 -8.12242  73.473
 4.60 4.80  0.760  0.760  0.761  0.761  0.763 15.76394 15.75389 -7.92043  91.898
 4.60 5.00  0.928  0.928  0.928  0.929  0.930 15.96204 15.95578 -7.71851 114.952
 4.60 5.20  1.107  1.107  1.107  1.108  1.109 16.16067 16.15711 -7.51716 144.013
 4.60 5.40  1.296  1.296  1.296  1.296  1.297 16.35955 16.35819 -7.31605 180.621
 4.60 5.60  1.492  1.492  1.493  1.493  1.494 16.55874 16.55902 -7.11522 226.930
 4.60 5.80  1.697  1.697  1.697  1.697  1.698 16.75811 16.75970 -6.91456 285.424
 4.60 6.00  1.905  1.905  1.906  1.906  1.906 16.95756 16.96028 -6.71399 359.076
 4.60 6.25  2.173  2.173  2.173  2.173  2.173 17.20696 17.21089 -6.46341 478.499
 4.60 6.50  2.444  2.444  2.444  2.444  2.444 17.45637 17.46150 -6.21282 637.640
 4.60 6.75  2.712  2.712  2.712  2.713  2.713 17.70566 17.71219 -5.96213 849.626
 4.60 7.00  2.991  2.991  2.991  2.991  2.991 17.95482 17.96299 -5.711301131.930
 4.60 7.25  3.272  3.272  3.272  3.272  3.272 18.20362 18.21411 -5.460141507.356
 4.60 7.50  3.555  3.555  3.555  3.556  3.556 18.45194 18.46568 -5.208522006.180
 4.60 7.75  3.836  3.836  3.836  3.836  3.836 18.69930 18.71824 -4.955982667.181
 4.60 8.00  4.113  4.113  4.113  4.113  4.113 18.94586 18.97160 -4.702683542.748
 4.65-2.00 -0.458 -0.458 -0.458 -0.457 -0.456  8.92706  8.88997-14.78436   0.034
 4.65-1.50 -0.458 -0.458 -0.458 -0.457 -0.455  9.42700  9.38987-14.28433   0.061
 4.65-1.00 -0.457 -0.457 -0.457 -0.456 -0.455  9.92706  9.88997-13.78436   0.108
 4.65-0.50 -0.457 -0.457 -0.457 -0.456 -0.454 10.42700 10.39005-13.28433   0.191
 4.65 0.00 -0.456 -0.456 -0.456 -0.455 -0.453 10.92706 10.89003-12.78436   0.340
 4.65 0.50 -0.455 -0.455 -0.455 -0.454 -0.452 11.42700 11.39005-12.28425   0.605
 4.65 1.00 -0.453 -0.453 -0.453 -0.452 -0.450 11.92701 11.89009-11.78410   1.076
 4.65 1.25 -0.451 -0.451 -0.451 -0.450 -0.448 12.17701 12.14007-11.53417   1.435
 4.65 1.50 -0.449 -0.449 -0.448 -0.448 -0.445 12.42700 12.39005-11.28425   1.914
 4.65 1.75 -0.444 -0.444 -0.444 -0.443 -0.441 12.67695 12.64010-11.03417   2.552
 4.65 2.00 -0.437 -0.437 -0.437 -0.436 -0.433 12.92691 12.89014-10.78410   3.403
 4.65 2.25 -0.426 -0.425 -0.425 -0.424 -0.421 13.17687 13.14019-10.53409   4.537
 4.65 2.50 -0.407 -0.407 -0.407 -0.406 -0.402 13.42684 13.39023-10.28408   6.049
 4.65 2.75 -0.379 -0.379 -0.379 -0.377 -0.374 13.67678 13.64029-10.03396   8.065
 4.65 3.00 -0.338 -0.337 -0.337 -0.335 -0.331 13.92670 13.89037 -9.78383  10.754
 4.65 3.20 -0.292 -0.291 -0.291 -0.289 -0.285 14.12659 14.09044 -9.58377  13.535
 4.65 3.40 -0.232 -0.232 -0.231 -0.230 -0.225 14.32644 14.29053 -9.38370  17.032
 4.65 3.60 -0.158 -0.158 -0.157 -0.155 -0.150 14.52626 14.49069 -9.18355  21.430
 4.65 3.80 -0.067 -0.067 -0.067 -0.064 -0.060 14.72605 14.69100 -8.98322  26.958
 4.65 4.00  0.040  0.040  0.041  0.043  0.048 14.92578 14.89143 -8.78278  33.902
 4.65 4.20  0.168  0.168  0.168  0.170  0.174 15.12526 15.09199 -8.58224  42.609
 4.65 4.40  0.313  0.313  0.314  0.315  0.319 15.32452 15.29276 -8.38152  53.514
 4.65 4.60  0.475  0.475  0.475  0.476  0.480 15.52348 15.49385 -8.18048  67.146
 4.65 4.80  0.648  0.649  0.649  0.650  0.652 15.72210 15.69532 -7.97903  84.154
 4.65 5.00  0.829  0.829  0.829  0.830  0.832 15.92044 15.89708 -7.77728 105.369
 4.65 5.20  1.014  1.014  1.014  1.015  1.016 16.11832 16.09929 -7.57506 131.723
 4.65 5.40  1.200  1.200  1.200  1.201  1.202 16.31620 16.30150 -7.37284 164.668
 4.65 5.60  1.388  1.388  1.388  1.389  1.390 16.51414 16.50363 -7.17069 205.885
 4.65 5.80  1.580  1.580  1.580  1.580  1.581 16.71228 16.70554 -6.96875 257.563
 4.65 6.00  1.776  1.776  1.776  1.776  1.777 16.91057 16.90725 -6.76700 322.386
 4.65 6.25  2.028  2.028  2.028  2.028  2.029 17.15898 17.15874 -6.51552 428.066
 4.65 6.50  2.287  2.287  2.287  2.287  2.287 17.40773 17.40993 -6.26432 569.277
 4.65 6.75  2.545  2.545  2.545  2.545  2.545 17.65687 17.66087 -6.01339 758.359
 4.65 7.00  2.809  2.809  2.809  2.809  2.809 17.90601 17.91180 -5.762461010.243
 4.65 7.25  3.080  3.080  3.080  3.080  3.080 18.15500 18.16277 -5.511481345.637
 4.65 7.50  3.353  3.353  3.353  3.353  3.354 18.40381 18.41380 -5.260431792.101
 4.65 7.75  3.626  3.626  3.626  3.626  3.627 18.65220 18.66542 -5.008882385.329
 4.65 8.00  3.898  3.898  3.898  3.898  3.898 18.90026 18.91745 -4.756963173.551
 4.70-2.00 -0.458 -0.457 -0.457 -0.456 -0.455  8.87708  8.83998-14.83416   0.030
 4.70-1.50 -0.457 -0.457 -0.457 -0.456 -0.454  9.37694  9.33985-14.33433   0.054
 4.70-1.00 -0.457 -0.457 -0.457 -0.456 -0.454  9.87708  9.83998-13.83416   0.096
 4.70-0.50 -0.456 -0.456 -0.456 -0.455 -0.453 10.37694 10.34005-13.33433   0.171
 4.70 0.00 -0.456 -0.456 -0.455 -0.455 -0.453 10.87703 10.83998-12.83416   0.303
 4.70 0.50 -0.455 -0.455 -0.454 -0.454 -0.452 11.37694 11.34005-12.33433   0.539
 4.70 1.00 -0.453 -0.453 -0.453 -0.452 -0.450 11.87703 11.84004-11.83416   0.959
 4.70 1.25 -0.452 -0.452 -0.452 -0.451 -0.448 12.12698 12.09004-11.58420   1.279
 4.70 1.50 -0.450 -0.450 -0.450 -0.449 -0.447 12.37694 12.34005-11.33423   1.706
 4.70 1.75 -0.448 -0.448 -0.447 -0.447 -0.444 12.62696 12.59008-11.08420   2.275
 4.70 2.00 -0.444 -0.444 -0.444 -0.443 -0.440 12.87697 12.84011-10.83416   3.033
 4.70 2.25 -0.438 -0.438 -0.437 -0.436 -0.434 13.12696 13.09008-10.58414   4.044
 4.70 2.50 -0.428 -0.427 -0.427 -0.426 -0.423 13.37694 13.34005-10.33414   5.392
 4.70 2.75 -0.411 -0.411 -0.411 -0.410 -0.407 13.62688 13.59014-10.08415   7.190
 4.70 3.00 -0.385 -0.385 -0.385 -0.384 -0.380 13.87680 13.84023 -9.83416   9.587
 4.70 3.20 -0.355 -0.355 -0.355 -0.353 -0.350 14.07671 14.04024 -9.63410  12.068
 4.70 3.40 -0.314 -0.314 -0.314 -0.312 -0.308 14.27662 14.24024 -9.43401  15.190
 4.70 3.60 -0.261 -0.261 -0.260 -0.258 -0.254 14.47656 14.44031 -9.23387  19.120
 4.70 3.80 -0.192 -0.192 -0.192 -0.190 -0.185 14.67653 14.64045 -9.03372  24.064
 4.70 4.00 -0.108 -0.107 -0.107 -0.104 -0.099 14.87651 14.84061 -8.83357  30.286
 4.70 4.20 -0.005 -0.005 -0.004 -0.002  0.003 15.07637 15.04076 -8.63342  38.111
 4.70 4.40  0.115  0.115  0.116  0.118  0.124 15.27616 15.24094 -8.43328  47.950
 4.70 4.60  0.254  0.255  0.255  0.257  0.263 15.47589 15.44120 -8.23306  60.315
 4.70 4.80  0.412  0.412  0.413  0.414  0.419 15.67551 15.64164 -8.03266  75.839
 4.70 5.00  0.585  0.585  0.586  0.587  0.592 15.87500 15.84223 -7.83209  95.316
 4.70 5.20  0.773  0.773  0.773  0.775  0.778 16.07423 16.04305 -7.63127 119.691
 4.70 5.40  0.971  0.971  0.971  0.972  0.975 16.27317 16.24414 -7.43015 150.165
 4.70 5.60  1.175  1.175  1.175  1.176  1.178 16.47172 16.44570 -7.22854 188.158
 4.70 5.80  1.382  1.382  1.383  1.383  1.385 16.66993 16.64764 -7.02658 235.500
 4.70 6.00  1.589  1.589  1.589  1.590  1.591 16.86794 16.84973 -6.82449 294.541
 4.70 6.25  1.845  1.845  1.845  1.846  1.846 17.11521 17.10249 -6.57176 389.195
 4.70 6.50  2.100  2.100  2.100  2.100  2.101 17.36248 17.35526 -6.31903 514.267
 4.70 6.75  2.354  2.354  2.354  2.354  2.355 17.61028 17.60753 -6.06672 680.811
 4.70 7.00  2.594  2.594  2.594  2.594  2.594 17.85842 17.85944 -5.81474 902.865
 4.70 7.25  2.854  2.854  2.854  2.854  2.854 18.10703 18.11077 -5.563431202.050
 4.70 7.50  3.116  3.116  3.116  3.116  3.116 18.35564 18.36211 -5.312111600.377
 4.70 7.75  3.378  3.378  3.378  3.378  3.378 18.60423 18.61352 -5.060762130.658
 4.70 8.00  3.641  3.641  3.641  3.641  3.641 18.85279 18.86498 -4.809392836.613
 4.75-2.00 -0.458 -0.458 -0.457 -0.457 -0.455  8.82711  8.79000-14.88439   0.027
 4.75-1.50 -0.457 -0.457 -0.457 -0.456 -0.454  9.32695  9.29004-14.38437   0.048
 4.75-1.00 -0.457 -0.457 -0.456 -0.455 -0.453  9.82705  9.79000-13.88439   0.086
 4.75-0.50 -0.456 -0.456 -0.456 -0.455 -0.453 10.32695 10.29003-13.38437   0.152
 4.75 0.00 -0.455 -0.455 -0.455 -0.454 -0.452 10.82705 10.79000-12.88439   0.270
 4.75 0.50 -0.454 -0.454 -0.454 -0.453 -0.451 11.32695 11.29004-12.38426   0.481
 4.75 1.00 -0.453 -0.453 -0.453 -0.452 -0.449 11.82705 11.79000-11.88439   0.855
 4.75 1.25 -0.452 -0.452 -0.451 -0.451 -0.448 12.07700 12.04002-11.63434   1.140
 4.75 1.50 -0.450 -0.450 -0.450 -0.449 -0.447 12.32695 12.29004-11.38426   1.520
 4.75 1.75 -0.448 -0.448 -0.448 -0.447 -0.444 12.57697 12.54006-11.13416   2.027
 4.75 2.00 -0.445 -0.445 -0.445 -0.444 -0.442 12.82698 12.79007-10.88406   2.703
 4.75 2.25 -0.441 -0.441 -0.441 -0.440 -0.438 13.07697 13.04005-10.63411   3.604
 4.75 2.50 -0.436 -0.436 -0.435 -0.434 -0.432 13.32695 13.29003-10.38416   4.806
 4.75 2.75 -0.426 -0.426 -0.426 -0.425 -0.422 13.57690 13.54012-10.13411   6.409
 4.75 3.00 -0.412 -0.412 -0.411 -0.410 -0.407 13.82685 13.79022 -9.88406   8.546
 4.75 3.20 -0.394 -0.394 -0.393 -0.392 -0.389 14.02681 13.99023 -9.68405  10.757
 4.75 3.40 -0.369 -0.369 -0.368 -0.367 -0.364 14.22677 14.19025 -9.48405  13.541
 4.75 3.60 -0.334 -0.334 -0.333 -0.332 -0.328 14.42673 14.39028 -9.28399  17.045
 4.75 3.80 -0.287 -0.287 -0.286 -0.285 -0.281 14.62669 14.59035 -9.08386  21.455
 4.75 4.00 -0.226 -0.226 -0.226 -0.224 -0.220 14.82666 14.79043 -8.88373  27.007
 4.75 4.20 -0.150 -0.149 -0.149 -0.147 -0.142 15.02653 14.99053 -8.68369  33.992
 4.75 4.40 -0.056 -0.056 -0.055 -0.053 -0.048 15.22640 15.19065 -8.48365  42.782
 4.75 4.60  0.055  0.055  0.056  0.058  0.064 15.42630 15.39076 -8.28360  53.841
 4.75 4.80  0.185  0.185  0.186  0.188  0.194 15.62622 15.59087 -8.08352  67.754
 4.75 5.00  0.332  0.332  0.333  0.335  0.340 15.82614 15.79099 -7.88339  85.254
 4.75 5.20  0.494  0.495  0.495  0.497  0.502 16.02590 15.99123 -7.68313 107.246
 4.75 5.40  0.671  0.671  0.672  0.673  0.678 16.22554 16.19159 -7.48273 134.867
 4.75 5.60  0.859  0.860  0.860  0.862  0.865 16.42506 16.39209 -7.28218 169.538
 4.75 5.80  1.058  1.058  1.059  1.060  1.063 16.62440 16.59282 -7.08141 212.980
 4.75 6.00  1.265  1.265  1.266  1.266  1.269 16.82354 16.79379 -6.88042 267.369
 4.75 6.25  1.532  1.532  1.532  1.533  1.535 17.07187 17.04554 -6.62872 354.638
 4.75 6.50  1.804  1.804  1.804  1.805  1.806 17.31973 17.29776 -6.37654 469.652
 4.75 6.75  2.075  2.075  2.075  2.075  2.076 17.56699 17.55064 -6.12359 620.558
 4.75 7.00  2.328  2.328  2.328  2.329  2.329 17.81425 17.80353 -5.87063 819.952
 4.75 7.25  2.590  2.590  2.590  2.590  2.590 18.06157 18.05625 -5.617961083.604
 4.75 7.50  2.848  2.848  2.849  2.849  2.849 18.30899 18.30878 -5.365521432.482
 4.75 7.75  3.105  3.105  3.105  3.105  3.105 18.55692 18.56086 -5.113451902.624
 4.75 8.00  3.360  3.360  3.360  3.360  3.360 18.80523 18.81258 -4.861702535.275
 4.80-2.00 -0.458 -0.458 -0.458 -0.457 -0.455  8.77706  8.73997-14.93442   0.024
 4.80-1.50 -0.457 -0.457 -0.457 -0.457 -0.455  9.27692  9.24005-14.43439   0.043
 4.80-1.00 -0.457 -0.457 -0.457 -0.456 -0.454  9.77706  9.73997-13.93442   0.076
 4.80-0.50 -0.456 -0.456 -0.456 -0.455 -0.453 10.27692 10.24005-13.43439   0.136
 4.80 0.00 -0.456 -0.456 -0.455 -0.455 -0.452 10.77706 10.73997-12.93442   0.241
 4.80 0.50 -0.455 -0.455 -0.454 -0.453 -0.451 11.27692 11.24005-12.43427   0.429
 4.80 1.00 -0.453 -0.453 -0.453 -0.452 -0.450 11.77699 11.74005-11.93442   0.762
 4.80 1.25 -0.452 -0.452 -0.452 -0.451 -0.448 12.02696 11.99005-11.68436   1.016
 4.80 1.50 -0.451 -0.451 -0.450 -0.450 -0.447 12.27692 12.24005-11.43427   1.355
 4.80 1.75 -0.449 -0.449 -0.449 -0.448 -0.445 12.52696 12.49005-11.18416   1.807
 4.80 2.00 -0.446 -0.446 -0.446 -0.445 -0.442 12.77699 12.74005-10.93405   2.409
 4.80 2.25 -0.443 -0.443 -0.442 -0.441 -0.439 13.02696 12.99005-10.68410   3.212
 4.80 2.50 -0.438 -0.438 -0.438 -0.437 -0.434 13.27692 13.24005-10.43415   4.284
 4.80 2.75 -0.431 -0.431 -0.431 -0.430 -0.427 13.52692 13.49013-10.18410   5.712
 4.80 3.00 -0.422 -0.422 -0.422 -0.421 -0.418 13.77692 13.74020 -9.93405   7.617
 4.80 3.20 -0.411 -0.411 -0.411 -0.410 -0.407 13.97683 13.94025 -9.73404   9.588
 4.80 3.40 -0.396 -0.396 -0.396 -0.395 -0.391 14.17674 14.14028 -9.53403  12.070
 4.80 3.60 -0.375 -0.375 -0.374 -0.373 -0.370 14.37669 14.34031 -9.33404  15.194
 4.80 3.80 -0.345 -0.345 -0.345 -0.343 -0.340 14.57670 14.54034 -9.13404  19.126
 4.80 4.00 -0.305 -0.305 -0.305 -0.303 -0.300 14.77670 14.74036 -8.93405  24.075
 4.80 4.20 -0.252 -0.252 -0.252 -0.250 -0.246 14.97661 14.94044 -8.73395  30.303
 4.80 4.40 -0.185 -0.185 -0.184 -0.183 -0.178 15.17651 15.14051 -8.53385  38.142
 4.80 4.60 -0.101 -0.101 -0.100 -0.099 -0.094 15.37645 15.34058 -8.33377  48.007
 4.80 4.80  0.000  0.000  0.000  0.002  0.006 15.57643 15.54063 -8.13372  60.424
 4.80 5.00  0.118  0.118  0.118  0.120  0.125 15.77641 15.74068 -7.93368  76.049
 4.80 5.20  0.254  0.254  0.255  0.257  0.262 15.97628 15.94079 -7.73352  95.705
 4.80 5.40  0.407  0.407  0.407  0.409  0.414 16.17611 16.14095 -7.53332 120.430
 4.80 5.60  0.574  0.574  0.574  0.576  0.581 16.37591 16.34116 -7.33310 151.524
 4.80 5.80  0.753  0.753  0.754  0.755  0.759 16.57568 16.54143 -7.13286 190.608
 4.80 6.00  0.942  0.942  0.943  0.944  0.947 16.77539 16.74178 -6.93256 239.718
 4.80 6.25  1.190  1.190  1.191  1.192  1.194 17.02480 16.99240 -6.68193 319.047
 4.80 6.50  1.447  1.447  1.447  1.448  1.450 17.27393 17.24329 -6.43098 424.243
 4.80 6.75  1.714  1.714  1.715  1.715  1.716 17.52256 17.49478 -6.17941 563.278
 4.80 7.00  1.985  1.985  1.985  1.986  1.987 17.77071 17.74679 -5.92738 746.703
 4.80 7.25  2.254  2.254  2.254  2.254  2.255 18.01808 17.99950 -5.67483 987.438
 4.80 7.50  2.527  2.527  2.527  2.527  2.527 18.26529 18.25237 -5.422051304.616
 4.80 7.75  2.792  2.792  2.792  2.792  2.792 18.51245 18.50529 -5.169171722.921
 4.80 8.00  3.052  3.052  3.052  3.052  3.052 18.75952 18.75831 -4.916142274.005
 4.85-2.00 -0.458 -0.458 -0.458 -0.457 -0.455  8.72705  8.68993-14.98422   0.021
 4.85-1.50 -0.457 -0.457 -0.457 -0.457 -0.455  9.22712  9.19005-14.48439   0.038
 4.85-1.00 -0.457 -0.457 -0.457 -0.456 -0.455  9.72705  9.69002-13.98422   0.068
 4.85-0.50 -0.457 -0.457 -0.456 -0.456 -0.454 10.22712 10.19005-13.48439   0.121
 4.85 0.00 -0.456 -0.456 -0.456 -0.455 -0.453 10.72705 10.69002-12.98422   0.215
 4.85 0.50 -0.455 -0.455 -0.455 -0.454 -0.452 11.22711 11.19005-12.48426   0.382
 4.85 1.00 -0.454 -0.454 -0.454 -0.453 -0.451 11.72705 11.69002-11.98422   0.679
 4.85 1.25 -0.453 -0.453 -0.453 -0.452 -0.450 11.97696 11.94003-11.73424   0.906
 4.85 1.50 -0.452 -0.452 -0.452 -0.451 -0.449 12.22686 12.19005-11.48426   1.208
 4.85 1.75 -0.451 -0.451 -0.451 -0.450 -0.447 12.47691 12.44008-11.23424   1.610
 4.85 2.00 -0.449 -0.449 -0.448 -0.448 -0.445 12.72697 12.69011-10.98422   2.147
 4.85 2.25 -0.446 -0.446 -0.445 -0.444 -0.442 12.97692 12.94008-10.73424   2.863
 4.85 2.50 -0.441 -0.441 -0.441 -0.440 -0.437 13.22686 13.19005-10.48426   3.818
 4.85 2.75 -0.435 -0.435 -0.435 -0.434 -0.431 13.47687 13.44008-10.23425   5.091
 4.85 3.00 -0.427 -0.427 -0.427 -0.426 -0.423 13.72689 13.69011 -9.98422   6.789
 4.85 3.20 -0.419 -0.419 -0.418 -0.417 -0.414 13.92689 13.89009 -9.78419   8.546
 4.85 3.40 -0.408 -0.408 -0.408 -0.407 -0.403 14.12687 14.09006 -9.58415  10.758
 4.85 3.60 -0.394 -0.394 -0.393 -0.392 -0.389 14.32683 14.29010 -9.38406  13.542
 4.85 3.80 -0.374 -0.374 -0.374 -0.373 -0.369 14.52678 14.49019 -9.18393  17.048
 4.85 4.00 -0.348 -0.348 -0.348 -0.346 -0.343 14.72673 14.69028 -8.98380  21.460
 4.85 4.20 -0.313 -0.313 -0.312 -0.311 -0.307 14.92668 14.89030 -8.78383  27.012
 4.85 4.40 -0.267 -0.266 -0.266 -0.265 -0.261 15.12663 15.09032 -8.58385  34.001
 4.85 4.60 -0.207 -0.207 -0.207 -0.205 -0.201 15.32658 15.29036 -8.38386  42.797
 4.85 4.80 -0.133 -0.132 -0.132 -0.131 -0.126 15.52653 15.49045 -8.18385  53.869
 4.85 5.00 -0.042 -0.042 -0.041 -0.040 -0.035 15.72648 15.69055 -7.98380  67.804
 4.85 5.20  0.065  0.066  0.066  0.068  0.072 15.92643 15.89068 -7.78369  85.338
 4.85 5.40  0.191  0.191  0.192  0.194  0.198 16.12637 16.09082 -7.58355 107.400
 4.85 5.60  0.334  0.335  0.335  0.337  0.341 16.32627 16.29096 -7.38337 135.161
 4.85 5.80  0.494  0.494  0.494  0.496  0.500 16.52611 16.49111 -7.18318 170.087
 4.85 6.00  0.666  0.666  0.667  0.668  0.671 16.72591 16.69126 -6.98297 214.020
 4.85 6.25  0.897  0.897  0.897  0.898  0.901 16.97565 16.94157 -6.73270 285.146
 4.85 6.50  1.136  1.136  1.137  1.137  1.140 17.22531 17.19201 -6.48241 379.774
 4.85 6.75  1.386  1.386  1.387  1.387  1.389 17.47476 17.44258 -6.23179 505.534
 4.85 7.00  1.646  1.646  1.646  1.647  1.648 17.72395 17.69337 -5.98088 672.420
 4.85 7.25  1.906  1.906  1.906  1.906  1.907 17.97264 17.94467 -5.72957 893.139
 4.85 7.50  2.175  2.175  2.175  2.175  2.176 18.22089 18.19645 -5.477821184.508
 4.85 7.75  2.444  2.444  2.444  2.444  2.444 18.46865 18.44885 -5.225501567.717
 4.85 8.00  2.713  2.713  2.713  2.713  2.714 18.71592 18.70183 -4.972652071.026
 4.90-2.00 -0.458 -0.458 -0.458 -0.457 -0.456  8.67706  8.63998-15.03433   0.019
 4.90-1.50 -0.457 -0.457 -0.457 -0.457 -0.455  9.17696  9.13988-14.53432   0.034
 4.90-1.00 -0.457 -0.457 -0.457 -0.456 -0.455  9.67706  9.63998-14.03428   0.061
 4.90-0.50 -0.457 -0.457 -0.456 -0.456 -0.454 10.17696 10.13988-13.53432   0.108
 4.90 0.00 -0.456 -0.456 -0.456 -0.455 -0.454 10.67706 10.63999-13.03428   0.191
 4.90 0.50 -0.456 -0.456 -0.455 -0.455 -0.453 11.17696 11.13988-12.53432   0.340
 4.90 1.00 -0.455 -0.455 -0.455 -0.454 -0.452 11.67706 11.63998-12.03428   0.605
 4.90 1.25 -0.454 -0.454 -0.454 -0.453 -0.451 11.92701 11.88993-11.78430   0.807
 4.90 1.50 -0.454 -0.453 -0.453 -0.452 -0.450 12.17696 12.13988-11.53432   1.076
 4.90 1.75 -0.453 -0.453 -0.452 -0.452 -0.449 12.42696 12.38998-11.28428   1.435
 4.90 2.00 -0.451 -0.451 -0.451 -0.450 -0.448 12.67697 12.64008-11.03423   1.914
 4.90 2.25 -0.449 -0.449 -0.449 -0.448 -0.446 12.92696 12.89016-10.78420   2.552
 4.90 2.50 -0.446 -0.446 -0.446 -0.445 -0.443 13.17696 13.14019-10.53417   3.403
 4.90 2.75 -0.442 -0.442 -0.441 -0.441 -0.438 13.42696 13.39014-10.28415   4.538
 4.90 3.00 -0.435 -0.435 -0.435 -0.434 -0.431 13.67697 13.64008-10.03414   6.051
 4.90 3.20 -0.428 -0.428 -0.427 -0.426 -0.424 13.87697 13.84013 -9.83415   7.617
 4.90 3.40 -0.418 -0.418 -0.418 -0.417 -0.414 14.07696 14.04017 -9.63417   9.589
 4.90 3.60 -0.406 -0.406 -0.406 -0.405 -0.402 14.27692 14.24021 -9.43414  12.071
 4.90 3.80 -0.390 -0.390 -0.390 -0.389 -0.386 14.47686 14.44025 -9.23407  15.196
 4.90 4.00 -0.371 -0.371 -0.370 -0.369 -0.366 14.67679 14.64028 -9.03400  19.128
 4.90 4.20 -0.345 -0.345 -0.345 -0.344 -0.340 14.87673 14.84025 -8.83395  24.077
 4.90 4.40 -0.312 -0.312 -0.312 -0.311 -0.307 15.07669 15.04021 -8.63390  30.307
 4.90 4.60 -0.270 -0.270 -0.270 -0.268 -0.265 15.27666 15.24024 -8.43385  38.149
 4.90 4.80 -0.216 -0.216 -0.216 -0.214 -0.211 15.47663 15.44036 -8.23381  48.020
 4.90 5.00 -0.149 -0.149 -0.148 -0.147 -0.143 15.67660 15.64048 -8.03376  60.444
 4.90 5.20 -0.066 -0.066 -0.065 -0.064 -0.060 15.87652 15.84062 -7.83370  76.078
 4.90 5.40  0.033  0.033  0.033  0.035  0.039 16.07643 16.04075 -7.63362  95.752
 4.90 5.60  0.150  0.150  0.151  0.152  0.156 16.27634 16.24085 -7.43353 120.512
 4.90 5.80  0.286  0.286  0.286  0.288  0.291 16.47624 16.44092 -7.23342 151.671
 4.90 6.00  0.438  0.438  0.438  0.440  0.443 16.67615 16.64098 -7.03330 190.878
 4.90 6.25  0.649  0.649  0.649  0.650  0.653 16.92599 16.89118 -6.78309 254.394
 4.90 6.50  0.877  0.877  0.877  0.878  0.880 17.17580 17.14145 -6.53284 338.988
 4.90 6.75  1.109  1.109  1.109  1.110  1.112 17.42548 17.39176 -6.28253 451.625
 4.90 7.00  1.359  1.359  1.359  1.360  1.361 17.67505 17.64217 -6.03212 601.498
 4.90 7.25  1.611  1.611  1.611  1.611  1.613 17.92451 17.89278 -5.78150 800.622
 4.90 7.50  1.869  1.869  1.869  1.869  1.870 18.17377 18.14364 -5.530621064.839
 4.90 7.75  2.128  2.128  2.128  2.128  2.129 18.42250 18.39497 -5.279301414.278
 4.90 8.00  2.392  2.392  2.392  2.392  2.392 18.67080 18.64670 -5.027611876.160
 4.95-2.00 -0.458 -0.458 -0.458 -0.457 -0.456  8.62706  8.58995-15.08434   0.017
 4.95-1.50 -0.458 -0.458 -0.458 -0.457 -0.456  9.12710  9.08991-14.58436   0.030
 4.95-1.00 -0.458 -0.457 -0.457 -0.457 -0.456  9.62706  9.58995-14.08428   0.054
 4.95-0.50 -0.457 -0.457 -0.457 -0.456 -0.455 10.12711 10.08990-13.58436   0.096
 4.95 0.00 -0.456 -0.456 -0.456 -0.456 -0.454 10.62706 10.58995-13.08428   0.171
 4.95 0.50 -0.456 -0.456 -0.455 -0.455 -0.453 11.12710 11.08991-12.58436   0.303
 4.95 1.00 -0.455 -0.455 -0.455 -0.454 -0.452 11.62706 11.59006-12.08428   0.540
 4.95 1.25 -0.454 -0.454 -0.454 -0.453 -0.452 11.87708 11.83998-11.83432   0.720
 4.95 1.50 -0.454 -0.454 -0.454 -0.453 -0.451 12.12710 12.08991-11.58436   0.959
 4.95 1.75 -0.453 -0.453 -0.453 -0.452 -0.450 12.37708 12.33998-11.33430   1.279
 4.95 2.00 -0.452 -0.452 -0.452 -0.451 -0.449 12.62706 12.59006-11.08423   1.706
 4.95 2.25 -0.451 -0.451 -0.451 -0.450 -0.448 12.87708 12.83998-10.83421   2.275
 4.95 2.50 -0.449 -0.449 -0.449 -0.448 -0.446 13.12711 13.08991-10.58419   3.033
 4.95 2.75 -0.446 -0.446 -0.446 -0.445 -0.443 13.37704 13.33997-10.33418   4.045
 4.95 3.00 -0.442 -0.442 -0.442 -0.441 -0.439 13.62696 13.59006-10.08418   5.394
 4.95 3.20 -0.437 -0.437 -0.437 -0.436 -0.434 13.82689 13.79014 -9.88418   6.790
 4.95 3.40 -0.430 -0.430 -0.430 -0.429 -0.427 14.02682 13.99022 -9.68419   8.547
 4.95 3.60 -0.420 -0.420 -0.420 -0.419 -0.417 14.22680 14.19027 -9.48416  10.759
 4.95 3.80 -0.407 -0.407 -0.407 -0.406 -0.404 14.42682 14.39028 -9.28409  13.544
 4.95 4.00 -0.391 -0.391 -0.390 -0.389 -0.387 14.62685 14.59028 -9.08402  17.050
 4.95 4.20 -0.369 -0.369 -0.369 -0.368 -0.365 14.82683 14.79027 -8.88402  21.462
 4.95 4.40 -0.343 -0.343 -0.342 -0.341 -0.338 15.02680 14.99026 -8.68403  27.016
 4.95 4.60 -0.309 -0.309 -0.309 -0.308 -0.305 15.22676 15.19031 -8.48398  34.006
 4.95 4.80 -0.268 -0.268 -0.267 -0.266 -0.263 15.42671 15.39041 -8.28390  42.805
 4.95 5.00 -0.216 -0.216 -0.216 -0.214 -0.211 15.62665 15.59051 -8.08381  53.881
 4.95 5.20 -0.152 -0.152 -0.152 -0.150 -0.147 15.82658 15.79055 -7.88376  67.819
 4.95 5.40 -0.074 -0.074 -0.073 -0.072 -0.069 16.02650 15.99059 -7.68372  85.361
 4.95 5.60  0.019  0.019  0.020  0.021  0.024 16.22642 16.19066 -7.48364 107.438
 4.95 5.80  0.131  0.131  0.132  0.133  0.136 16.42633 16.39075 -7.28354 135.222
 4.95 6.00  0.261  0.261  0.261  0.262  0.265 16.62624 16.59084 -7.08344 170.187
 4.95 6.25  0.448  0.448  0.448  0.449  0.452 16.87602 16.84090 -6.83332 226.847
 4.95 6.50  0.657  0.658  0.658  0.659  0.661 17.12581 17.09096 -6.58319 302.341
 4.95 6.75  0.873  0.873  0.873  0.874  0.876 17.37566 17.34127 -6.33292 402.922
 4.95 7.00  1.114  1.114  1.114  1.114  1.116 17.62552 17.59162 -6.08260 536.877
 4.95 7.25  1.360  1.360  1.360  1.361  1.362 17.87524 17.84198 -5.83226 715.154
 4.95 7.50  1.612  1.612  1.612  1.613  1.613 18.12483 18.09237 -5.58186 952.273
 4.95 7.75  1.864  1.864  1.864  1.865  1.865 18.37415 18.34314 -5.331131267.181
 4.95 8.00  2.121  2.121  2.121  2.121  2.121 18.62325 18.59417 -5.080141685.277
 5.00-2.00 -0.458 -0.458 -0.458 -0.457 -0.456  8.57703  8.53995-15.13430   0.015
 5.00-1.50 -0.458 -0.458 -0.457 -0.457 -0.456  9.07700  9.03981-14.63433   0.027
 5.00-1.00 -0.458 -0.458 -0.457 -0.457 -0.456  9.57703  9.53995-14.13430   0.048
 5.00-0.50 -0.457 -0.457 -0.457 -0.457 -0.456 10.07700 10.03981-13.63433   0.086
 5.00 0.00 -0.457 -0.457 -0.457 -0.457 -0.455 10.57703 10.53995-13.13431   0.152
 5.00 0.50 -0.457 -0.456 -0.456 -0.456 -0.455 11.07700 11.03981-12.63433   0.270
 5.00 1.00 -0.456 -0.456 -0.455 -0.455 -0.454 11.57703 11.53995-12.13430   0.481
 5.00 1.25 -0.455 -0.455 -0.455 -0.454 -0.453 11.82702 11.78988-11.88431   0.641
 5.00 1.50 -0.454 -0.454 -0.454 -0.454 -0.452 12.07700 12.03981-11.63433   0.855
 5.00 1.75 -0.454 -0.454 -0.453 -0.453 -0.451 12.32702 12.28995-11.38428   1.140
 5.00 2.00 -0.453 -0.453 -0.452 -0.452 -0.450 12.57703 12.54008-11.13424   1.520
 5.00 2.25 -0.452 -0.452 -0.451 -0.451 -0.449 12.82703 12.79017-10.88428   2.027
 5.00 2.50 -0.450 -0.450 -0.450 -0.449 -0.447 13.07701 13.04021-10.63433   2.703
 5.00 2.75 -0.449 -0.448 -0.448 -0.448 -0.445 13.32696 13.29014-10.38426   3.605
 5.00 3.00 -0.446 -0.446 -0.446 -0.445 -0.443 13.57692 13.54008-10.13419   4.807
 5.00 3.20 -0.443 -0.443 -0.442 -0.442 -0.439 13.77695 13.74013 -9.93417   6.051
 5.00 3.40 -0.438 -0.438 -0.438 -0.437 -0.435 13.97699 13.94018 -9.73415   7.618
 5.00 3.60 -0.432 -0.432 -0.432 -0.431 -0.429 14.17700 14.14021 -9.53413   9.590
 5.00 3.80 -0.423 -0.423 -0.423 -0.422 -0.420 14.37697 14.34021 -9.33410  12.072
 5.00 4.00 -0.411 -0.411 -0.410 -0.410 -0.407 14.57692 14.54020 -9.13407  15.197
 5.00 4.20 -0.394 -0.394 -0.394 -0.393 -0.390 14.77681 14.74020 -8.93402  19.130
 5.00 4.40 -0.372 -0.372 -0.372 -0.371 -0.368 14.97670 14.94021 -8.73397  24.080
 5.00 4.60 -0.344 -0.344 -0.343 -0.343 -0.340 15.17665 15.14026 -8.53394  30.312
 5.00 4.80 -0.308 -0.308 -0.308 -0.307 -0.305 15.37667 15.34036 -8.33391  38.156
 5.00 5.00 -0.265 -0.265 -0.265 -0.264 -0.262 15.57669 15.54045 -8.13389  48.030
 5.00 5.20 -0.213 -0.213 -0.212 -0.211 -0.209 15.77668 15.74052 -7.93385  60.455
 5.00 5.40 -0.149 -0.149 -0.148 -0.147 -0.145 15.97666 15.94058 -7.73380  76.093
 5.00 5.60 -0.072 -0.072 -0.071 -0.071 -0.068 16.17659 16.14062 -7.53372  95.776
 5.00 5.80  0.020  0.020  0.020  0.021  0.024 16.37648 16.34066 -7.33363 120.549
 5.00 6.00  0.129  0.129  0.129  0.130  0.133 16.57634 16.54070 -7.13354 151.727
 5.00 6.25  0.291  0.291  0.291  0.292  0.294 16.82613 16.79083 -6.88346 202.254
 5.00 6.50  0.479  0.479  0.479  0.480  0.482 17.07591 17.04100 -6.63339 269.588
 5.00 6.75  0.687  0.687  0.687  0.688  0.689 17.32584 17.29123 -6.38316 359.320
 5.00 7.00  0.905  0.905  0.905  0.905  0.907 17.57577 17.54145 -6.13289 478.873
 5.00 7.25  1.144  1.144  1.144  1.144  1.145 17.82552 17.79162 -5.88260 638.081
 5.00 7.50  1.391  1.391  1.391  1.391  1.392 18.07518 18.04179 -5.63227 850.039
 5.00 7.75  1.639  1.639  1.639  1.640  1.640 18.32477 18.29226 -5.381831132.048
 5.00 8.00  1.892  1.892  1.892  1.892  1.892 18.57426 18.54295 -5.131301507.194
 5.05-2.00 -0.457 -0.457 -0.457 -0.456 -0.455  8.52711  8.48996-15.18429   0.014
 5.05-1.50 -0.457 -0.457 -0.457 -0.456 -0.455  9.02694  8.98994-14.68445   0.024
 5.05-1.00 -0.457 -0.457 -0.457 -0.456 -0.455  9.52711  9.48996-14.18429   0.043
 5.05-0.50 -0.457 -0.457 -0.457 -0.456 -0.455 10.02694  9.98994-13.68424   0.076
 5.05 0.00 -0.457 -0.457 -0.457 -0.456 -0.455 10.52711 10.48996-13.18429   0.136
 5.05 0.50 -0.457 -0.457 -0.457 -0.456 -0.455 11.02694 10.98994-12.68424   0.241
 5.05 1.00 -0.456 -0.456 -0.456 -0.456 -0.455 11.52711 11.48996-12.18429   0.429
 5.05 1.25 -0.456 -0.456 -0.456 -0.456 -0.454 11.77703 11.73997-11.93427   0.572
 5.05 1.50 -0.456 -0.456 -0.455 -0.455 -0.454 12.02694 11.98998-11.68424   0.762
 5.05 1.75 -0.455 -0.455 -0.455 -0.455 -0.453 12.27696 12.23997-11.43423   1.016
 5.05 2.00 -0.454 -0.454 -0.454 -0.454 -0.452 12.52699 12.48996-11.18422   1.355
 5.05 2.25 -0.453 -0.453 -0.453 -0.453 -0.451 12.77696 12.73999-10.93423   1.807
 5.05 2.50 -0.452 -0.452 -0.452 -0.451 -0.450 13.02694 12.99003-10.68424   2.410
 5.05 2.75 -0.451 -0.451 -0.450 -0.450 -0.448 13.27696 13.24006-10.43423   3.214
 5.05 3.00 -0.449 -0.449 -0.448 -0.448 -0.446 13.52699 13.49010-10.18422   4.285
 5.05 3.20 -0.446 -0.446 -0.446 -0.445 -0.443 13.72698 13.69009 -9.98423   5.394
 5.05 3.40 -0.443 -0.443 -0.443 -0.442 -0.440 13.92696 13.89008 -9.78424   6.790
 5.05 3.60 -0.439 -0.439 -0.439 -0.438 -0.436 14.12692 14.09011 -9.58421   8.547
 5.05 3.80 -0.434 -0.434 -0.434 -0.433 -0.430 14.32689 14.29017 -9.38415  10.760
 5.05 4.00 -0.426 -0.426 -0.426 -0.425 -0.422 14.52686 14.49024 -9.18409  13.545
 5.05 4.20 -0.415 -0.414 -0.414 -0.413 -0.411 14.72689 14.69023 -8.98407  17.051
 5.05 4.40 -0.399 -0.399 -0.398 -0.398 -0.395 14.92692 14.89021 -8.78404  21.463
 5.05 4.60 -0.377 -0.377 -0.377 -0.376 -0.374 15.12690 15.09024 -8.58402  27.018
 5.05 4.80 -0.349 -0.349 -0.348 -0.348 -0.345 15.32681 15.29031 -8.38399  34.010
 5.05 5.00 -0.312 -0.312 -0.312 -0.311 -0.309 15.52673 15.49038 -8.18396  42.812
 5.05 5.20 -0.267 -0.267 -0.267 -0.266 -0.264 15.72665 15.69040 -7.98391  53.889
 5.05 5.40 -0.212 -0.212 -0.212 -0.211 -0.209 15.92657 15.89042 -7.78385  67.830
 5.05 5.60 -0.146 -0.146 -0.146 -0.145 -0.143 16.12652 16.09048 -7.58379  85.378
 5.05 5.80 -0.067 -0.067 -0.067 -0.066 -0.064 16.32650 16.29057 -7.38371 107.465
 5.05 6.00  0.026  0.026  0.026  0.027  0.029 16.52647 16.49066 -7.18363 135.262
 5.05 6.25  0.166  0.166  0.166  0.167  0.169 16.77630 16.74077 -6.93352 180.314
 5.05 6.50  0.333  0.333  0.333  0.334  0.336 17.02612 16.99087 -6.68340 240.359
 5.05 6.75  0.526  0.526  0.526  0.527  0.528 17.27604 17.24104 -6.43323 320.387
 5.05 7.00  0.725  0.725  0.725  0.725  0.727 17.52595 17.49122 -6.18303 427.031
 5.05 7.25  0.954  0.954  0.954  0.955  0.956 17.77563 17.74141 -5.93281 569.089
 5.05 7.50  1.195  1.195  1.195  1.196  1.197 18.02530 17.99162 -5.68256 758.294
 5.05 7.75  1.440  1.440  1.440  1.440  1.441 18.27503 18.24195 -5.432261010.231
 5.05 8.00  1.690  1.690  1.690  1.690  1.691 18.52479 18.49234 -5.181911345.652
 5.10-2.00 -0.455 -0.455 -0.455 -0.455 -0.454  8.47712  8.43996-15.23433   0.012
 5.10-1.50 -0.455 -0.455 -0.455 -0.455 -0.454  8.97704  8.93992-14.73424   0.021
 5.10-1.00 -0.455 -0.455 -0.455 -0.455 -0.454  9.47712  9.43996-14.23433   0.038
 5.10-0.50 -0.455 -0.455 -0.455 -0.455 -0.454  9.97704  9.93992-13.73424   0.068
 5.10 0.00 -0.455 -0.455 -0.455 -0.455 -0.454 10.47712 10.43996-13.23433   0.121
 5.10 0.50 -0.455 -0.455 -0.455 -0.455 -0.454 10.97704 10.93997-12.73424   0.215
 5.10 1.00 -0.455 -0.455 -0.455 -0.455 -0.454 11.47712 11.43996-12.23426   0.382
 5.10 1.25 -0.455 -0.455 -0.455 -0.455 -0.454 11.72706 11.68997-11.98425   0.509
 5.10 1.50 -0.455 -0.455 -0.455 -0.455 -0.454 11.97699 11.93997-11.73424   0.679
 5.10 1.75 -0.455 -0.455 -0.455 -0.454 -0.453 12.22698 12.18997-11.48425   0.906
 5.10 2.00 -0.454 -0.454 -0.454 -0.454 -0.453 12.47698 12.43996-11.23426   1.208
 5.10 2.25 -0.454 -0.454 -0.454 -0.454 -0.453 12.72698 12.68998-10.98425   1.611
 5.10 2.50 -0.453 -0.453 -0.453 -0.453 -0.452 12.97699 12.94002-10.73424   2.148
 5.10 2.75 -0.453 -0.453 -0.452 -0.452 -0.451 13.22699 13.19007-10.48421   2.864
 5.10 3.00 -0.451 -0.451 -0.451 -0.451 -0.449 13.47698 13.44012-10.23418   3.819
 5.10 3.20 -0.450 -0.450 -0.450 -0.449 -0.448 13.67695 13.64010-10.03421   4.807
 5.10 3.40 -0.448 -0.448 -0.448 -0.447 -0.446 13.87692 13.84008 -9.83423   6.052
 5.10 3.60 -0.445 -0.445 -0.445 -0.445 -0.443 14.07692 14.04008 -9.63421   7.618
 5.10 3.80 -0.442 -0.442 -0.441 -0.441 -0.439 14.27695 14.24010 -9.43416   9.590
 5.10 4.00 -0.436 -0.436 -0.436 -0.435 -0.433 14.47698 14.44012 -9.23411  12.073
 5.10 4.20 -0.429 -0.429 -0.429 -0.428 -0.426 14.67691 14.64014 -9.03406  15.198
 5.10 4.40 -0.419 -0.419 -0.419 -0.418 -0.416 14.87684 14.84016 -8.83402  19.131
 5.10 4.60 -0.405 -0.404 -0.404 -0.403 -0.401 15.07681 15.04019 -8.63399  24.082
 5.10 4.80 -0.385 -0.384 -0.384 -0.383 -0.381 15.27682 15.24024 -8.43397  30.315
 5.10 5.00 -0.357 -0.357 -0.357 -0.356 -0.354 15.47683 15.44028 -8.23396  38.161
 5.10 5.20 -0.321 -0.321 -0.321 -0.320 -0.318 15.67675 15.64031 -8.03398  48.035
 5.10 5.40 -0.275 -0.275 -0.275 -0.274 -0.272 15.87667 15.84035 -7.83399  60.463
 5.10 5.60 -0.218 -0.218 -0.218 -0.217 -0.215 16.07661 16.04041 -7.63395  76.106
 5.10 5.80 -0.149 -0.149 -0.149 -0.148 -0.146 16.27658 16.24050 -7.43384  95.796
 5.10 6.00 -0.066 -0.066 -0.066 -0.066 -0.064 16.47654 16.44059 -7.23374 120.580
 5.10 6.25  0.057  0.057  0.057  0.057  0.059 16.72642 16.69068 -6.98363 160.746
 5.10 6.50  0.206  0.206  0.206  0.207  0.208 16.97631 16.94077 -6.73353 214.282
 5.10 6.75  0.381  0.381  0.381  0.382  0.383 17.22621 17.19091 -6.48339 285.645
 5.10 7.00  0.572  0.572  0.572  0.573  0.574 17.47611 17.44107 -6.23322 380.758
 5.10 7.25  0.786  0.786  0.786  0.787  0.788 17.72589 17.69123 -5.98304 507.470
 5.10 7.50  1.020  1.020  1.020  1.020  1.021 17.97566 17.94141 -5.73283 676.276
 5.10 7.75  1.261  1.261  1.261  1.261  1.261 18.22545 18.19168 -5.48256 901.136
 5.10 8.00  1.507  1.507  1.507  1.507  1.508 18.47524 18.44201 -5.232251200.630
 5.15-2.00 -0.452 -0.452 -0.452 -0.452 -0.451  8.42716  8.38987-15.28433   0.011
 5.15-1.50 -0.452 -0.452 -0.452 -0.452 -0.451  8.92706  8.88992-14.78436   0.019
 5.15-1.00 -0.452 -0.452 -0.452 -0.452 -0.451  9.42716  9.39005-14.28433   0.034
 5.15-0.50 -0.452 -0.452 -0.452 -0.452 -0.451  9.92706  9.88992-13.78436   0.061
 5.15 0.00 -0.452 -0.452 -0.452 -0.452 -0.451 10.42700 10.39005-13.28433   0.108
 5.15 0.50 -0.452 -0.452 -0.452 -0.452 -0.451 10.92701 10.88992-12.78436   0.191
 5.15 1.00 -0.452 -0.452 -0.452 -0.452 -0.451 11.42700 11.39005-12.28425   0.340
 5.15 1.25 -0.452 -0.452 -0.452 -0.452 -0.451 11.67701 11.64001-12.03431   0.454
 5.15 1.50 -0.452 -0.452 -0.452 -0.452 -0.451 11.92701 11.88997-11.78436   0.605
 5.15 1.75 -0.452 -0.452 -0.452 -0.452 -0.451 12.17701 12.14001-11.53431   0.807
 5.15 2.00 -0.452 -0.452 -0.452 -0.452 -0.451 12.42700 12.39005-11.28425   1.076
 5.15 2.25 -0.452 -0.452 -0.452 -0.452 -0.451 12.67698 12.64001-11.03431   1.435
 5.15 2.50 -0.452 -0.452 -0.452 -0.451 -0.451 12.92696 12.88997-10.78436   1.914
 5.15 2.75 -0.451 -0.451 -0.451 -0.451 -0.450 13.17698 13.14001-10.53431   2.553
 5.15 3.00 -0.451 -0.451 -0.451 -0.451 -0.450 13.42700 13.39005-10.28425   3.404
 5.15 3.20 -0.450 -0.450 -0.450 -0.450 -0.449 13.62696 13.59004-10.08419   4.285
 5.15 3.40 -0.449 -0.449 -0.449 -0.449 -0.448 13.82693 13.79003 -9.88413   5.394
 5.15 3.60 -0.448 -0.448 -0.448 -0.447 -0.446 14.02693 13.99003 -9.68411   6.790
 5.15 3.80 -0.446 -0.446 -0.446 -0.445 -0.444 14.22696 14.19004 -9.48414   8.548
 5.15 4.00 -0.443 -0.443 -0.443 -0.442 -0.441 14.42700 14.39005 -9.28416  10.761
 5.15 4.20 -0.439 -0.439 -0.439 -0.438 -0.437 14.62694 14.59009 -9.08414  13.546
 5.15 4.40 -0.433 -0.433 -0.433 -0.432 -0.431 14.82689 14.79012 -8.88412  17.052
 5.15 4.60 -0.424 -0.424 -0.424 -0.423 -0.422 15.02685 14.99016 -8.68408  21.466
 5.15 4.80 -0.411 -0.411 -0.411 -0.411 -0.409 15.22684 15.19019 -8.48404  27.021
 5.15 5.00 -0.393 -0.393 -0.393 -0.393 -0.390 15.42684 15.39023 -8.28400  34.015
 5.15 5.20 -0.368 -0.368 -0.368 -0.368 -0.365 15.62676 15.59026 -8.08393  42.816
 5.15 5.40 -0.335 -0.334 -0.334 -0.333 -0.331 15.82669 15.79029 -7.88387  53.895
 5.15 5.60 -0.290 -0.290 -0.290 -0.289 -0.287 16.02662 15.99037 -7.68382  67.840
 5.15 5.80 -0.233 -0.233 -0.233 -0.232 -0.230 16.22656 16.19047 -7.48378  85.394
 5.15 6.00 -0.163 -0.163 -0.162 -0.162 -0.159 16.42651 16.39058 -7.28375 107.489
 5.15 6.25 -0.054 -0.054 -0.054 -0.053 -0.051 16.67645 16.64062 -7.03367 143.299
 5.15 6.50  0.078  0.078  0.078  0.079  0.081 16.92639 16.89065 -6.78357 191.032
 5.15 6.75  0.237  0.237  0.237  0.237  0.239 17.17631 17.14079 -6.53346 254.663
 5.15 7.00  0.420  0.420  0.420  0.420  0.422 17.42619 17.39094 -6.28333 339.478
 5.15 7.25  0.612  0.612  0.612  0.613  0.614 17.67602 17.64109 -6.03320 452.483
 5.15 7.50  0.836  0.836  0.836  0.836  0.837 17.92583 17.89126 -5.78304 603.053
 5.15 7.75  1.070  1.070  1.070  1.071  1.071 18.17561 18.14151 -5.53280 803.665
 5.15 8.00  1.314  1.314  1.314  1.314  1.314 18.42537 18.39182 -5.282501070.927
 5.20-2.00 -0.448 -0.448 -0.447 -0.447 -0.446  8.37712  8.34005-15.33433   0.010
 5.20-1.50 -0.448 -0.448 -0.447 -0.447 -0.446  8.87703  8.83992-14.83446   0.017
 5.20-1.00 -0.448 -0.448 -0.448 -0.447 -0.446  9.37712  9.34005-14.33433   0.030
 5.20-0.50 -0.448 -0.448 -0.447 -0.447 -0.446  9.87703  9.83992-13.83446   0.054
 5.20 0.00 -0.448 -0.448 -0.448 -0.447 -0.446 10.37712 10.34005-13.33433   0.096
 5.20 0.50 -0.448 -0.448 -0.448 -0.447 -0.446 10.87703 10.83992-12.83446   0.171
 5.20 1.00 -0.448 -0.448 -0.448 -0.447 -0.446 11.37712 11.34005-12.33433   0.303
 5.20 1.25 -0.448 -0.448 -0.448 -0.447 -0.446 11.62708 11.59001-12.08439   0.404
 5.20 1.50 -0.448 -0.448 -0.448 -0.447 -0.446 11.87703 11.83998-11.83446   0.540
 5.20 1.75 -0.448 -0.448 -0.448 -0.447 -0.446 12.12708 12.09001-11.58435   0.720
 5.20 2.00 -0.448 -0.448 -0.447 -0.447 -0.446 12.37712 12.34005-11.33423   0.959
 5.20 2.25 -0.448 -0.448 -0.447 -0.447 -0.446 12.62705 12.59001-11.08418   1.279
 5.20 2.50 -0.447 -0.447 -0.447 -0.447 -0.446 12.87697 12.83998-10.83416   1.706
 5.20 2.75 -0.447 -0.447 -0.447 -0.447 -0.446 13.12695 13.09001-10.58420   2.275
 5.20 3.00 -0.447 -0.447 -0.447 -0.447 -0.446 13.37694 13.34005-10.33423   3.034
 5.20 3.20 -0.447 -0.447 -0.447 -0.446 -0.446 13.57695 13.54005-10.13420   3.819
 5.20 3.40 -0.446 -0.446 -0.446 -0.446 -0.445 13.77696 13.74004 -9.93418   4.808
 5.20 3.60 -0.446 -0.446 -0.446 -0.445 -0.444 13.97697 13.94004 -9.73415   6.052
 5.20 3.80 -0.445 -0.445 -0.445 -0.444 -0.443 14.17696 14.14005 -9.53414   7.619
 5.20 4.00 -0.443 -0.443 -0.443 -0.443 -0.442 14.37694 14.34005 -9.33414   9.591
 5.20 4.20 -0.441 -0.441 -0.441 -0.441 -0.440 14.57691 14.54006 -9.13415  12.073
 5.20 4.40 -0.438 -0.438 -0.438 -0.438 -0.436 14.77687 14.74009 -8.93416  15.198
 5.20 4.60 -0.433 -0.433 -0.433 -0.433 -0.432 14.97683 14.94014 -8.73415  19.132
 5.20 4.80 -0.426 -0.426 -0.426 -0.426 -0.424 15.17680 15.14019 -8.53410  24.085
 5.20 5.00 -0.416 -0.416 -0.416 -0.415 -0.414 15.37676 15.34025 -8.33404  30.319
 5.20 5.20 -0.401 -0.401 -0.401 -0.400 -0.399 15.57675 15.54027 -8.13397  38.165
 5.20 5.40 -0.379 -0.379 -0.379 -0.378 -0.377 15.77674 15.74028 -7.93390  48.041
 5.20 5.60 -0.349 -0.349 -0.349 -0.348 -0.346 15.97670 15.94032 -7.73386  60.472
 5.20 5.80 -0.308 -0.308 -0.308 -0.307 -0.305 16.17664 16.14038 -7.53386  76.120
 5.20 6.00 -0.254 -0.254 -0.254 -0.253 -0.251 16.37658 16.34044 -7.33386  95.817
 5.20 6.25 -0.167 -0.167 -0.167 -0.166 -0.164 16.62651 16.59052 -7.08371 127.742
 5.20 6.50 -0.054 -0.054 -0.054 -0.053 -0.051 16.87645 16.84061 -6.83357 170.299
 5.20 6.75  0.084  0.084  0.084  0.085  0.087 17.12633 17.09072 -6.58353 227.031
 5.20 7.00  0.249  0.249  0.249  0.250  0.251 17.37621 17.34084 -6.33348 302.653
 5.20 7.25  0.424  0.424  0.424  0.425  0.427 17.62610 17.59097 -6.08340 403.426
 5.20 7.50  0.634  0.634  0.634  0.635  0.636 17.87599 17.84111 -5.83327 537.714
 5.20 7.75  0.858  0.858  0.858  0.858  0.859 18.12584 18.09134 -5.58305 716.657
 5.20 8.00  1.093  1.093  1.093  1.093  1.094 18.37566 18.34163 -5.33273 955.085
 5.25-2.00 -0.440 -0.440 -0.440 -0.440 -0.439  8.32716  8.29004-15.38437   0.009
 5.25-1.50 -0.440 -0.440 -0.440 -0.440 -0.439  8.82705  8.78993-14.88439   0.015
 5.25-1.00 -0.440 -0.440 -0.440 -0.440 -0.439  9.32715  9.29004-14.38426   0.027
 5.25-0.50 -0.440 -0.440 -0.440 -0.440 -0.439  9.82705  9.78993-13.88439   0.048
 5.25 0.00 -0.440 -0.440 -0.440 -0.440 -0.439 10.32716 10.29003-13.38426   0.086
 5.25 0.50 -0.440 -0.440 -0.440 -0.440 -0.439 10.82705 10.78993-12.88439   0.152
 5.25 1.00 -0.440 -0.440 -0.440 -0.440 -0.439 11.32716 11.29004-12.38426   0.270
 5.25 1.25 -0.440 -0.440 -0.440 -0.440 -0.439 11.57710 11.53998-12.13433   0.360
 5.25 1.50 -0.440 -0.440 -0.440 -0.440 -0.439 11.82705 11.78993-11.88439   0.481
 5.25 1.75 -0.440 -0.440 -0.440 -0.440 -0.439 12.07700 12.03998-11.63433   0.641
 5.25 2.00 -0.440 -0.440 -0.440 -0.440 -0.439 12.32695 12.29004-11.38426   0.855
 5.25 2.25 -0.440 -0.440 -0.440 -0.440 -0.439 12.57697 12.54002-11.13433   1.140
 5.25 2.50 -0.440 -0.440 -0.440 -0.440 -0.439 12.82698 12.79000-10.88439   1.520
 5.25 2.75 -0.440 -0.440 -0.440 -0.440 -0.439 13.07697 13.04002-10.63433   2.027
 5.25 3.00 -0.440 -0.440 -0.440 -0.440 -0.439 13.32695 13.29003-10.38426   2.704
 5.25 3.20 -0.440 -0.440 -0.440 -0.440 -0.439 13.52696 13.49002-10.18431   3.404
 5.25 3.40 -0.440 -0.440 -0.440 -0.439 -0.438 13.72698 13.69001 -9.98436   4.285
 5.25 3.60 -0.439 -0.439 -0.439 -0.439 -0.438 13.92698 13.89001 -9.78434   5.394
 5.25 3.80 -0.439 -0.439 -0.439 -0.439 -0.438 14.12697 14.09002 -9.58425   6.790
 5.25 4.00 -0.438 -0.438 -0.438 -0.438 -0.437 14.32695 14.29004 -9.38416   8.549
 5.25 4.20 -0.437 -0.437 -0.437 -0.437 -0.436 14.52691 14.49005 -9.18410  10.762
 5.25 4.40 -0.435 -0.435 -0.435 -0.435 -0.434 14.72687 14.69007 -8.98407  13.547
 5.25 4.60 -0.433 -0.433 -0.433 -0.433 -0.432 14.92687 14.89011 -8.78405  17.053
 5.25 4.80 -0.429 -0.429 -0.429 -0.429 -0.428 15.12691 15.09018 -8.58405  21.467
 5.25 5.00 -0.424 -0.424 -0.424 -0.423 -0.422 15.32695 15.29026 -8.38405  27.024
 5.25 5.20 -0.415 -0.415 -0.415 -0.415 -0.414 15.52686 15.49024 -8.18405  34.017
 5.25 5.40 -0.403 -0.403 -0.402 -0.402 -0.401 15.72677 15.69022 -7.98406  42.821
 5.25 5.60 -0.384 -0.384 -0.384 -0.384 -0.383 15.92673 15.89027 -7.78401  53.902
 5.25 5.80 -0.359 -0.359 -0.358 -0.358 -0.357 16.12674 16.09037 -7.58393  67.851
 5.25 6.00 -0.323 -0.323 -0.323 -0.322 -0.321 16.32675 16.29048 -7.38384  85.410
 5.25 6.25 -0.261 -0.261 -0.261 -0.260 -0.259 16.57664 16.54049 -7.13378 113.871
 5.25 6.50 -0.176 -0.176 -0.175 -0.175 -0.174 16.82653 16.79050 -6.88372 151.811
 5.25 6.75 -0.065 -0.065 -0.064 -0.064 -0.062 17.07643 17.04059 -6.63362 202.391
 5.25 7.00  0.073  0.073  0.073  0.073  0.075 17.32634 17.29070 -6.38352 269.817
 5.25 7.25  0.234  0.234  0.234  0.235  0.236 17.57622 17.54083 -6.13346 359.672
 5.25 7.50  0.414  0.414  0.414  0.414  0.416 17.82607 17.79099 -5.88339 479.423
 5.25 7.75  0.619  0.619  0.619  0.620  0.621 18.07591 18.04117 -5.63319 639.013
 5.25 8.00  0.840  0.840  0.840  0.840  0.841 18.32572 18.29137 -5.38290 851.682
 5.30-2.00 -0.430 -0.430 -0.430 -0.430 -0.429  8.27715  8.24005-15.43427   0.008
 5.30-1.50 -0.430 -0.430 -0.430 -0.430 -0.429  8.77706  8.73989-14.93442   0.014
 5.30-1.00 -0.430 -0.430 -0.430 -0.430 -0.429  9.27715  9.24005-14.43427   0.024
 5.30-0.50 -0.430 -0.430 -0.430 -0.430 -0.429  9.77706  9.73997-13.93442   0.043
 5.30 0.00 -0.430 -0.430 -0.430 -0.430 -0.429 10.27715 10.24005-13.43427   0.076
 5.30 0.50 -0.430 -0.430 -0.430 -0.430 -0.429 10.77706 10.73997-12.93442   0.136
 5.30 1.00 -0.430 -0.430 -0.430 -0.430 -0.429 11.27715 11.24005-12.43427   0.241
 5.30 1.25 -0.430 -0.430 -0.430 -0.430 -0.429 11.52707 11.49001-12.18435   0.322
 5.30 1.50 -0.430 -0.430 -0.430 -0.430 -0.429 11.77699 11.73997-11.93442   0.429
 5.30 1.75 -0.430 -0.430 -0.430 -0.430 -0.429 12.02707 11.99001-11.68435   0.572
 5.30 2.00 -0.430 -0.430 -0.430 -0.430 -0.429 12.27715 12.24005-11.43427   0.762
 5.30 2.25 -0.430 -0.430 -0.430 -0.430 -0.429 12.52707 12.49001-11.18435   1.016
 5.30 2.50 -0.430 -0.430 -0.430 -0.430 -0.429 12.77699 12.73997-10.93442   1.355
 5.30 2.75 -0.430 -0.430 -0.430 -0.430 -0.429 13.02694 12.99001-10.68435   1.807
 5.30 3.00 -0.430 -0.430 -0.430 -0.430 -0.429 13.27692 13.24005-10.43427   2.410
 5.30 3.20 -0.430 -0.430 -0.430 -0.429 -0.429 13.47695 13.44005-10.23433   3.034
 5.30 3.40 -0.430 -0.430 -0.430 -0.429 -0.428 13.67698 13.64005-10.03439   3.819
 5.30 3.60 -0.430 -0.430 -0.429 -0.429 -0.428 13.87698 13.84005 -9.83437   4.808
 5.30 3.80 -0.429 -0.429 -0.429 -0.429 -0.428 14.07695 14.04005 -9.63426   6.052
 5.30 4.00 -0.429 -0.429 -0.429 -0.429 -0.428 14.27692 14.24005 -9.43415   7.619
 5.30 4.20 -0.428 -0.428 -0.428 -0.428 -0.427 14.47692 14.44005 -9.23409   9.591
 5.30 4.40 -0.428 -0.428 -0.428 -0.427 -0.426 14.67692 14.64005 -9.03405  12.074
 5.30 4.60 -0.426 -0.426 -0.426 -0.426 -0.425 14.87692 14.84010 -8.83407  15.200
 5.30 4.80 -0.424 -0.424 -0.424 -0.424 -0.423 15.07692 15.04020 -8.63411  19.134
 5.30 5.00 -0.421 -0.421 -0.421 -0.421 -0.420 15.27692 15.24030 -8.43415  24.087
 5.30 5.20 -0.417 -0.416 -0.416 -0.416 -0.415 15.47686 15.44026 -8.23412  30.321
 5.30 5.40 -0.410 -0.410 -0.409 -0.409 -0.408 15.67680 15.64022 -8.03407  38.168
 5.30 5.60 -0.399 -0.399 -0.399 -0.399 -0.398 15.87676 15.84022 -7.83402  48.046
 5.30 5.80 -0.384 -0.384 -0.384 -0.383 -0.383 16.07673 16.04025 -7.63397  60.480
 5.30 6.00 -0.362 -0.362 -0.362 -0.362 -0.361 16.27669 16.24030 -7.43392  76.133
 5.30 6.25 -0.322 -0.322 -0.322 -0.322 -0.321 16.52662 16.49037 -7.18379 101.504
 5.30 6.50 -0.264 -0.264 -0.264 -0.264 -0.263 16.77656 16.74044 -6.93367 135.327
 5.30 6.75 -0.184 -0.184 -0.184 -0.183 -0.182 17.02651 16.99050 -6.68368 180.420
 5.30 7.00 -0.079 -0.079 -0.078 -0.078 -0.077 17.27646 17.24055 -6.43368 240.536
 5.30 7.25  0.051  0.051  0.051  0.052  0.053 17.52633 17.49067 -6.18349 320.649
 5.30 7.50  0.198  0.198  0.199  0.199  0.200 17.77619 17.74084 -5.93330 427.425
 5.30 7.75  0.376  0.377  0.377  0.377  0.378 18.02609 17.99105 -5.68318 569.742
 5.30 8.00  0.573  0.573  0.573  0.574  0.575 18.27600 18.24130 -5.43309 759.420
