 ROSSELAND MASS ABSORPTION COEFFICIENTS [-0.1]
 logT logP  0km/s  1km/s  2km/s  4km/s  8km/s  log Ne   log Na  log rho IPloCM-1
 3.32-2.00 -5.261 -5.250 -5.232 -5.203 -5.169  5.20737 10.54008-13.12755   0.002
 3.32-1.50 -5.290 -5.278 -5.259 -5.228 -5.192  5.63084 11.04100-12.62672   0.003
 3.32-1.00 -5.330 -5.317 -5.296 -5.265 -5.229  6.03822 11.54382-12.12378   0.005
 3.32-0.50 -5.371 -5.357 -5.336 -5.304 -5.268  6.44279 12.05192-11.61547   0.009
 3.32 0.00 -5.395 -5.381 -5.360 -5.328 -5.291  6.86338 12.57345-11.09415   0.014
 3.32 0.50 -5.395 -5.381 -5.360 -5.328 -5.291  7.30492 13.11461-10.55300   0.023
 3.32 1.00 -5.382 -5.367 -5.346 -5.314 -5.277  7.73231 13.66811 -9.99957   0.038
 3.32 1.25 -5.373 -5.358 -5.338 -5.306 -5.269  7.92804 13.94310 -9.72452   0.048
 3.32 1.50 -5.363 -5.349 -5.328 -5.297 -5.261  8.11327 14.21617 -9.45136   0.059
 3.32 1.75 -5.350 -5.336 -5.316 -5.285 -5.250  8.28750 14.48512 -9.18247   0.072
 3.32 2.00 -5.333 -5.320 -5.301 -5.271 -5.237  8.45591 14.75082 -8.91686   0.088
 3.32 2.25 -5.311 -5.298 -5.280 -5.252 -5.219  8.61887 15.01310 -8.65459   0.106
 3.32 2.50 -5.284 -5.271 -5.254 -5.228 -5.196  8.78183 15.27277 -8.39491   0.128
 3.32 2.75 -5.249 -5.237 -5.220 -5.195 -5.165  8.94502 15.53018 -8.13748   0.155
 3.32 3.00 -5.206 -5.195 -5.179 -5.156 -5.127  9.10857 15.78590 -7.88174   0.187
 3.32 3.20 -5.164 -5.153 -5.139 -5.117 -5.090  9.24163 15.98947 -7.67818   0.218
 3.32 3.40 -5.117 -5.107 -5.093 -5.073 -5.047  9.37469 16.19238 -7.47528   0.254
 3.32 3.60 -5.063 -5.054 -5.041 -5.022 -4.998  9.50737 16.39463 -7.27299   0.296
 3.32 3.80 -5.002 -4.994 -4.983 -4.966 -4.943  9.63872 16.59645 -7.07113   0.344
 3.32 4.00 -4.936 -4.929 -4.920 -4.904 -4.883  9.76879 16.79789 -6.86967   0.399
 3.32 4.20 -4.873 -4.866 -4.857 -4.842 -4.820  9.89484 16.99905 -6.66854   0.461
 3.32 4.40 -4.804 -4.798 -4.789 -4.774 -4.753 10.01779 17.19999 -6.46762   0.531
 3.32 4.60 -4.733 -4.727 -4.719 -4.703 -4.683 10.13721 17.40073 -6.26690   0.609
 3.32 4.80 -4.659 -4.653 -4.644 -4.629 -4.608 10.25331 17.60134 -6.06630   0.697
 3.32 5.00 -4.578 -4.572 -4.563 -4.548 -4.528 10.36661 17.80182 -5.86582   0.794
 3.32 5.20 -4.489 -4.484 -4.475 -4.461 -4.440 10.47735 18.00215 -5.66545   0.902
 3.32 5.40 -4.391 -4.385 -4.377 -4.363 -4.343 10.58618 18.20243 -5.46515   1.022
 3.32 5.60 -4.279 -4.274 -4.267 -4.253 -4.233 10.69318 18.40267 -5.26490   1.156
 3.32 5.80 -4.152 -4.147 -4.140 -4.128 -4.109 10.79888 18.60288 -5.06470   1.306
 3.32 6.00 -4.005 -4.001 -3.995 -3.984 -3.967 10.90342 18.80305 -4.86455   1.473
 3.32 6.25 -3.789 -3.786 -3.780 -3.771 -3.756 11.03281 19.05312 -4.61441   1.709
 3.32 6.50 -3.526 -3.523 -3.519 -3.511 -3.499 11.16107 19.30320 -4.36432   1.981
 3.32 6.75 -3.206 -3.204 -3.201 -3.195 -3.185 11.28837 19.55329 -4.11427   2.294
 3.32 7.00 -3.002 -3.000 -2.997 -2.992 -2.984 11.41497 19.80339 -3.86423   2.654
 3.32 7.25 -2.891 -2.890 -2.887 -2.883 -2.876 11.54113 20.05340 -3.61418   3.069
 3.32 7.50 -2.786 -2.785 -2.782 -2.778 -2.772 11.66671 20.30341 -3.36411   3.547
 3.32 7.75 -2.685 -2.683 -2.681 -2.677 -2.672 11.79161 20.55346 -3.11403   4.096
 3.32 8.00 -2.586 -2.585 -2.583 -2.579 -2.575 11.91587 20.80353 -2.86391   4.725
 3.34-2.00 -5.193 -5.183 -5.167 -5.140 -5.106  5.27370 10.51970-13.14795   0.002
 3.34-1.50 -5.207 -5.196 -5.178 -5.148 -5.111  5.71700 11.01995-12.64762   0.004
 3.34-1.00 -5.225 -5.212 -5.192 -5.159 -5.121  6.14706 11.52088-12.14679   0.006
 3.34-0.50 -5.247 -5.233 -5.211 -5.177 -5.137  6.55979 12.02366-11.64397   0.010
 3.34 0.00 -5.264 -5.248 -5.225 -5.190 -5.150  6.96511 12.53161-11.13596   0.015
 3.34 0.50 -5.254 -5.238 -5.215 -5.179 -5.139  7.37949 13.05231-10.61529   0.025
 3.34 1.00 -5.208 -5.191 -5.168 -5.132 -5.092  7.81471 13.59306-10.07453   0.041
 3.34 1.25 -5.174 -5.158 -5.135 -5.100 -5.059  8.03082 13.86975 -9.79791   0.052
 3.34 1.50 -5.141 -5.124 -5.102 -5.067 -5.027  8.24452 14.14644 -9.52129   0.067
 3.34 1.75 -5.107 -5.091 -5.069 -5.035 -4.996  8.44358 14.42159 -9.24611   0.084
 3.34 2.00 -5.075 -5.060 -5.038 -5.006 -4.968  8.63215 14.69496 -8.97265   0.105
 3.34 2.25 -5.044 -5.028 -5.007 -4.976 -4.940  8.80856 14.96409 -8.70354   0.129
 3.34 2.50 -5.012 -4.997 -4.977 -4.947 -4.913  8.97804 15.22994 -8.43771   0.157
 3.34 2.75 -4.977 -4.962 -4.943 -4.915 -4.882  9.14126 15.49238 -8.17526   0.189
 3.34 3.00 -4.938 -4.924 -4.906 -4.880 -4.848  9.30320 15.75220 -7.91543   0.228
 3.34 3.20 -4.901 -4.888 -4.871 -4.846 -4.816  9.43208 15.95836 -7.70925   0.264
 3.34 3.40 -4.859 -4.848 -4.832 -4.808 -4.779  9.56097 16.16341 -7.50420   0.306
 3.34 3.60 -4.812 -4.801 -4.787 -4.765 -4.738  9.69061 16.36741 -7.30025   0.356
 3.34 3.80 -4.758 -4.749 -4.736 -4.716 -4.690  9.82100 16.57068 -7.09705   0.414
 3.34 4.00 -4.698 -4.691 -4.680 -4.662 -4.638  9.95139 16.77328 -6.89449   0.481
 3.34 4.20 -4.642 -4.635 -4.625 -4.608 -4.584 10.08091 16.97528 -6.69240   0.559
 3.34 4.40 -4.583 -4.576 -4.566 -4.549 -4.526 10.20939 17.17692 -6.49069   0.648
 3.34 4.60 -4.523 -4.517 -4.507 -4.491 -4.468 10.33578 17.37825 -6.28935   0.749
 3.34 4.80 -4.464 -4.458 -4.449 -4.432 -4.410 10.45882 17.57936 -6.08826   0.863
 3.34 5.00 -4.403 -4.397 -4.388 -4.372 -4.349 10.57910 17.78025 -5.88739   0.991
 3.34 5.20 -4.342 -4.336 -4.327 -4.312 -4.289 10.69594 17.98094 -5.68673   1.134
 3.34 5.40 -4.279 -4.273 -4.265 -4.249 -4.227 10.81016 18.18149 -5.48618   1.293
 3.34 5.60 -4.214 -4.209 -4.201 -4.186 -4.164 10.92175 18.38191 -5.28573   1.470
 3.34 5.80 -4.148 -4.143 -4.135 -4.121 -4.099 11.03127 18.58223 -5.08535   1.667
 3.34 6.00 -4.080 -4.076 -4.068 -4.054 -4.034 11.13893 18.78247 -4.88506   1.887
 3.34 6.25 -3.995 -3.990 -3.983 -3.970 -3.950 11.27131 19.03267 -4.63485   2.198
 3.34 6.50 -3.907 -3.903 -3.896 -3.884 -3.865 11.40192 19.28285 -4.38468   2.555
 3.34 6.75 -3.819 -3.815 -3.808 -3.797 -3.779 11.53120 19.53303 -4.13452   2.965
 3.34 7.00 -3.730 -3.726 -3.720 -3.709 -3.692 11.65935 19.78319 -3.88439   3.436
 3.34 7.25 -3.641 -3.638 -3.632 -3.621 -3.606 11.78655 20.03325 -3.63438   3.978
 3.34 7.50 -3.552 -3.549 -3.543 -3.533 -3.519 11.91291 20.28330 -3.38437   4.601
 3.34 7.75 -3.463 -3.460 -3.454 -3.445 -3.432 12.03856 20.53335 -3.13425   5.317
 3.34 8.00 -3.374 -3.371 -3.366 -3.357 -3.345 12.16346 20.78340 -2.88406   6.140
 3.36-2.00 -5.096 -5.087 -5.072 -5.045 -5.012  5.38739 10.49955-13.16800   0.002
 3.36-1.50 -5.135 -5.125 -5.108 -5.080 -5.044  5.79323 10.99965-12.66797   0.004
 3.36-1.00 -5.149 -5.138 -5.119 -5.088 -5.049  6.22583 11.49996-12.16762   0.006
 3.36-0.50 -5.153 -5.140 -5.119 -5.085 -5.043  6.65725 12.00087-11.66675   0.011
 3.36 0.00 -5.149 -5.134 -5.111 -5.074 -5.031  7.07408 12.50365-11.16387   0.017
 3.36 0.50 -5.124 -5.107 -5.082 -5.044 -5.000  7.48173 13.01199-10.65561   0.027
 3.36 1.00 -5.059 -5.041 -5.015 -4.977 -4.932  7.89382 13.53314-10.13448   0.044
 3.36 1.25 -5.010 -4.992 -4.967 -4.929 -4.885  8.10864 13.80169 -9.86588   0.056
 3.36 1.50 -4.953 -4.936 -4.911 -4.873 -4.830  8.32346 14.07408 -9.59346   0.072
 3.36 1.75 -4.892 -4.875 -4.851 -4.814 -4.772  8.53809 14.35083 -9.31673   0.092
 3.36 2.00 -4.833 -4.816 -4.792 -4.756 -4.716  8.75236 14.62757 -9.04001   0.118
 3.36 2.25 -4.776 -4.759 -4.736 -4.702 -4.663  8.95258 14.90263 -8.76493   0.149
 3.36 2.50 -4.724 -4.708 -4.686 -4.653 -4.616  9.14270 15.17580 -8.49174   0.185
 3.36 2.75 -4.675 -4.659 -4.639 -4.608 -4.572  9.32046 15.44481 -8.22274   0.227
 3.36 3.00 -4.628 -4.614 -4.594 -4.565 -4.531  9.49066 15.71054 -7.95703   0.277
 3.36 3.20 -4.589 -4.576 -4.557 -4.530 -4.497  9.62154 15.92056 -7.74701   0.322
 3.36 3.40 -4.549 -4.536 -4.519 -4.493 -4.462  9.75096 16.12893 -7.53865   0.373
 3.36 3.60 -4.505 -4.494 -4.478 -4.454 -4.424  9.87886 16.33570 -7.33192   0.433
 3.36 3.80 -4.456 -4.446 -4.433 -4.411 -4.383 10.00636 16.54129 -7.12637   0.501
 3.36 4.00 -4.402 -4.395 -4.383 -4.364 -4.338 10.13386 16.74578 -6.92191   0.580
 3.36 4.20 -4.352 -4.345 -4.334 -4.315 -4.290 10.26189 16.94929 -6.71834   0.672
 3.36 4.40 -4.298 -4.291 -4.280 -4.263 -4.239 10.38992 17.15215 -6.51542   0.779
 3.36 4.60 -4.242 -4.236 -4.226 -4.209 -4.185 10.51764 17.35441 -6.31311   0.902
 3.36 4.80 -4.186 -4.180 -4.170 -4.154 -4.131 10.64431 17.55629 -6.11122   1.043
 3.36 5.00 -4.126 -4.121 -4.112 -4.096 -4.073 10.76997 17.75778 -5.90974   1.206
 3.36 5.20 -4.067 -4.061 -4.053 -4.037 -4.015 10.89246 17.95896 -5.70865   1.389
 3.36 5.40 -4.004 -3.999 -3.991 -3.976 -3.954 11.01245 18.15992 -5.50775   1.595
 3.36 5.60 -3.940 -3.935 -3.927 -3.913 -3.892 11.12966 18.36065 -5.30701   1.825
 3.36 5.80 -3.874 -3.869 -3.862 -3.848 -3.828 11.24414 18.56124 -5.10638   2.082
 3.36 6.00 -3.806 -3.802 -3.795 -3.782 -3.763 11.35622 18.76170 -4.90588   2.369
 3.36 6.25 -3.720 -3.716 -3.710 -3.698 -3.679 11.49313 19.01213 -4.65546   2.773
 3.36 6.50 -3.633 -3.629 -3.623 -3.612 -3.595 11.62737 19.26245 -4.40517   3.237
 3.36 6.75 -3.545 -3.541 -3.536 -3.525 -3.509 11.75938 19.51271 -4.15500   3.768
 3.36 7.00 -3.456 -3.453 -3.448 -3.438 -3.423 11.88964 19.76291 -3.90483   4.378
 3.36 7.25 -3.367 -3.364 -3.359 -3.350 -3.336 12.01847 20.01305 -3.65461   5.078
 3.36 7.50 -3.279 -3.276 -3.271 -3.263 -3.250 12.14613 20.26316 -3.40439   5.882
 3.36 7.75 -3.190 -3.188 -3.183 -3.175 -3.164 12.27288 20.51327 -3.15424   6.806
 3.36 8.00 -3.103 -3.100 -3.096 -3.089 -3.078 12.39863 20.76335 -2.90413   7.865
 3.38-2.00 -4.932 -4.924 -4.910 -4.885 -4.853  5.60086 10.47958-13.18802   0.003
 3.38-1.50 -5.015 -5.006 -4.990 -4.962 -4.927  5.94606 10.97955-12.68804   0.005
 3.38-1.00 -5.065 -5.055 -5.037 -5.007 -4.970  6.32490 11.47972-12.18789   0.007
 3.38-0.50 -5.079 -5.068 -5.048 -5.015 -4.974  6.73838 11.97996-11.68761   0.011
 3.38 0.00 -5.063 -5.050 -5.028 -4.991 -4.947  7.16495 12.48101-11.18662   0.019
 3.38 0.50 -5.018 -5.002 -4.978 -4.939 -4.892  7.58365 12.98394-10.68361   0.030
 3.38 1.00 -4.929 -4.912 -4.886 -4.845 -4.797  7.99357 13.49276-10.17477   0.048
 3.38 1.25 -4.867 -4.849 -4.823 -4.783 -4.735  8.19905 13.75184 -9.91563   0.061
 3.38 1.50 -4.794 -4.775 -4.749 -4.708 -4.662  8.40535 14.01494 -9.65248   0.077
 3.38 1.75 -4.713 -4.694 -4.668 -4.629 -4.584  8.61820 14.28429 -9.38320   0.098
 3.38 2.00 -4.627 -4.609 -4.583 -4.545 -4.502  8.83110 14.55727 -9.11031   0.126
 3.38 2.25 -4.540 -4.523 -4.498 -4.463 -4.421  9.04403 14.83410 -8.83352   0.161
 3.38 2.50 -4.458 -4.441 -4.418 -4.384 -4.344  9.25696 15.11093 -8.55674   0.206
 3.38 2.75 -4.382 -4.366 -4.345 -4.313 -4.275  9.45702 15.38576 -8.28187   0.260
 3.38 3.00 -4.314 -4.300 -4.280 -4.250 -4.214  9.64748 15.65849 -8.00908   0.324
 3.38 3.20 -4.264 -4.251 -4.232 -4.204 -4.170  9.79059 15.87358 -7.79402   0.382
 3.38 3.40 -4.216 -4.205 -4.188 -4.162 -4.129  9.92869 16.08658 -7.58105   0.447
 3.38 3.60 -4.170 -4.159 -4.144 -4.120 -4.089 10.06152 16.29736 -7.37023   0.521
 3.38 3.80 -4.122 -4.113 -4.100 -4.078 -4.050 10.19138 16.50628 -7.16124   0.606
 3.38 4.00 -4.073 -4.066 -4.055 -4.036 -4.009 10.31931 16.71358 -6.95390   0.702
 3.38 4.20 -4.029 -4.022 -4.012 -3.993 -3.968 10.44561 16.91947 -6.74809   0.812
 3.38 4.40 -3.981 -3.975 -3.965 -3.948 -3.924 10.57176 17.12432 -6.54330   0.938
 3.38 4.60 -3.933 -3.927 -3.918 -3.902 -3.878 10.69785 17.32814 -6.33943   1.085
 3.38 4.80 -3.884 -3.879 -3.870 -3.854 -3.831 10.82388 17.53127 -6.13622   1.254
 3.38 5.00 -3.831 -3.826 -3.818 -3.802 -3.780 10.94978 17.73376 -5.93368   1.450
 3.38 5.20 -3.776 -3.772 -3.764 -3.749 -3.727 11.07466 17.93576 -5.73181   1.674
 3.38 5.40 -3.718 -3.714 -3.706 -3.692 -3.671 11.19840 18.13738 -5.53031   1.931
 3.38 5.60 -3.657 -3.653 -3.646 -3.633 -3.613 11.32038 18.33861 -5.32914   2.221
 3.38 5.80 -3.593 -3.589 -3.583 -3.570 -3.551 11.43978 18.53958 -5.12818   2.548
 3.38 6.00 -3.528 -3.524 -3.518 -3.506 -3.488 11.55691 18.74036 -4.92738   2.916
 3.38 6.25 -3.443 -3.440 -3.434 -3.423 -3.406 11.69934 18.99118 -4.67652   3.436
 3.38 6.50 -3.357 -3.354 -3.349 -3.339 -3.323 11.83835 19.24179 -4.42585   4.033
 3.38 6.75 -3.270 -3.267 -3.262 -3.253 -3.238 11.97420 19.49221 -4.17548   4.716
 3.38 7.00 -3.182 -3.179 -3.175 -3.166 -3.153 12.10755 19.74249 -3.92518   5.498
 3.38 7.25 -3.094 -3.091 -3.087 -3.079 -3.067 12.23877 19.99264 -3.67491   6.395
 3.38 7.50 -3.006 -3.004 -3.000 -2.992 -2.982 12.36829 20.24279 -3.42470   7.423
 3.38 7.75 -2.919 -2.916 -2.913 -2.906 -2.896 12.49653 20.49298 -3.17454   8.604
 3.38 8.00 -2.832 -2.830 -2.827 -2.820 -2.812 12.62335 20.74320 -2.92445   9.956
 3.40-2.00 -4.738 -4.731 -4.718 -4.695 -4.666  5.84825 10.45954-13.20803   0.004
 3.40-1.50 -4.840 -4.831 -4.817 -4.791 -4.758  6.17609 10.95952-12.70819   0.006
 3.40-1.00 -4.925 -4.916 -4.899 -4.870 -4.834  6.50893 11.45954-12.20803   0.009
 3.40-0.50 -4.977 -4.967 -4.948 -4.917 -4.876  6.86564 11.95966-11.70797   0.013
 3.40 0.00 -4.983 -4.971 -4.950 -4.915 -4.871  7.25744 12.46000-11.20754   0.020
 3.40 0.50 -4.935 -4.921 -4.898 -4.859 -4.811  7.67284 12.96114-10.70642   0.033
 3.40 1.00 -4.829 -4.814 -4.789 -4.748 -4.698  8.08955 13.46449-10.20301   0.053
 3.40 1.25 -4.754 -4.738 -4.712 -4.671 -4.621  8.29517 13.71827 -9.94928   0.067
 3.40 1.50 -4.664 -4.646 -4.620 -4.579 -4.529  8.50079 13.97428 -9.69336   0.084
 3.40 1.75 -4.563 -4.545 -4.519 -4.479 -4.431  8.70687 14.23435 -9.43333   0.107
 3.40 2.00 -4.454 -4.436 -4.410 -4.371 -4.324  8.91366 14.49859 -9.16909   0.136
 3.40 2.25 -4.343 -4.326 -4.301 -4.264 -4.220  9.12526 14.76894 -8.89872   0.173
 3.40 2.50 -4.233 -4.217 -4.194 -4.159 -4.117  9.33686 15.04258 -8.62507   0.221
 3.40 2.75 -4.128 -4.114 -4.093 -4.060 -4.021  9.54806 15.31948 -8.34816   0.282
 3.40 3.00 -4.032 -4.019 -4.000 -3.970 -3.934  9.75853 15.59638 -8.07125   0.359
 3.40 3.20 -3.961 -3.950 -3.933 -3.905 -3.871  9.91813 15.81608 -7.85154   0.432
 3.40 3.40 -3.898 -3.887 -3.872 -3.847 -3.814 10.07181 16.03422 -7.63340   0.516
 3.40 3.60 -3.839 -3.830 -3.817 -3.794 -3.764 10.21838 16.25021 -7.41743   0.611
 3.40 3.80 -3.785 -3.777 -3.765 -3.745 -3.717 10.35849 16.46366 -7.20402   0.717
 3.40 4.00 -3.733 -3.727 -3.717 -3.699 -3.674 10.49360 16.67505 -6.99268   0.838
 3.40 4.20 -3.688 -3.683 -3.674 -3.657 -3.633 10.62391 16.88435 -6.78340   0.974
 3.40 4.40 -3.644 -3.639 -3.630 -3.615 -3.592 10.75206 17.09208 -6.57566   1.129
 3.40 4.60 -3.601 -3.596 -3.588 -3.574 -3.552 10.87808 17.29824 -6.36942   1.305
 3.40 4.80 -3.558 -3.554 -3.547 -3.532 -3.511 11.00319 17.50327 -6.16429   1.507
 3.40 5.00 -3.513 -3.509 -3.502 -3.488 -3.467 11.12775 17.70732 -5.96019   1.739
 3.40 5.20 -3.466 -3.463 -3.456 -3.443 -3.423 11.25225 17.91056 -5.75701   2.007
 3.40 5.40 -3.416 -3.412 -3.406 -3.393 -3.374 11.37626 18.11321 -5.55442   2.314
 3.40 5.60 -3.361 -3.358 -3.352 -3.340 -3.322 11.49958 18.31529 -5.35233   2.667
 3.40 5.80 -3.303 -3.300 -3.294 -3.283 -3.266 11.62164 18.51699 -5.15060   3.070
 3.40 6.00 -3.242 -3.239 -3.234 -3.223 -3.207 11.74241 18.71834 -4.94923   3.529
 3.40 6.25 -3.162 -3.159 -3.155 -3.145 -3.130 11.88997 18.96964 -4.69802   4.183
 3.40 6.50 -3.079 -3.077 -3.072 -3.063 -3.049 12.03423 19.22063 -4.44709   4.938
 3.40 6.75 -2.995 -2.992 -2.988 -2.980 -2.967 12.17477 19.47137 -4.19635   5.805
 3.40 7.00 -2.909 -2.907 -2.903 -2.895 -2.883 12.31218 19.72189 -3.94577   6.799
 3.40 7.25 -2.822 -2.820 -2.817 -2.810 -2.799 12.44665 19.97219 -3.69534   7.938
 3.40 7.50 -2.736 -2.734 -2.730 -2.724 -2.715 12.57875 20.22246 -3.44503   9.242
 3.40 7.75 -2.650 -2.648 -2.645 -2.639 -2.631 12.70902 20.47272 -3.19478  10.738
 3.40 8.00 -2.565 -2.563 -2.560 -2.555 -2.547 12.83727 20.72296 -2.94462  12.447
 3.42-2.00 -4.558 -4.551 -4.539 -4.518 -4.492  6.06108 10.43965-13.22805   0.005
 3.42-1.50 -4.651 -4.644 -4.630 -4.607 -4.576  6.41078 10.93957-12.72793   0.007
 3.42-1.00 -4.745 -4.737 -4.721 -4.695 -4.660  6.74170 11.43965-12.22797   0.011
 3.42-0.50 -4.822 -4.813 -4.795 -4.765 -4.726  7.06893 11.93962-11.72793   0.016
 3.42 0.00 -4.861 -4.850 -4.830 -4.796 -4.752  7.41044 12.43981-11.22783   0.024
 3.42 0.50 -4.840 -4.827 -4.805 -4.767 -4.718  7.78168 12.94017-10.72746   0.036
 3.42 1.00 -4.741 -4.727 -4.704 -4.663 -4.610  8.18213 13.44154-10.22607   0.057
 3.42 1.25 -4.661 -4.647 -4.623 -4.581 -4.528  8.38776 13.69303 -9.97458   0.072
 3.42 1.50 -4.563 -4.548 -4.524 -4.482 -4.430  8.59340 13.94547 -9.72216   0.092
 3.42 1.75 -4.447 -4.432 -4.408 -4.367 -4.316  8.79886 14.19989 -9.46776   0.116
 3.42 2.00 -4.319 -4.303 -4.279 -4.240 -4.191  9.00432 14.45682 -9.21084   0.147
 3.42 2.25 -4.185 -4.169 -4.146 -4.109 -4.063  9.21076 14.71810 -8.94951   0.186
 3.42 2.50 -4.048 -4.034 -4.012 -3.977 -3.933  9.41830 14.98372 -8.68382   0.237
 3.42 2.75 -3.918 -3.905 -3.885 -3.853 -3.813  9.62924 15.25574 -8.41184   0.302
 3.42 3.00 -3.795 -3.783 -3.765 -3.736 -3.700  9.84017 15.53033 -8.13727   0.386
 3.42 3.20 -3.704 -3.693 -3.677 -3.651 -3.617 10.00783 15.75174 -7.91584   0.468
 3.42 3.40 -3.619 -3.610 -3.596 -3.573 -3.542 10.17398 15.97315 -7.69441   0.567
 3.42 3.60 -3.542 -3.534 -3.522 -3.501 -3.473 10.33603 16.19363 -7.47393   0.683
 3.42 3.80 -3.472 -3.465 -3.455 -3.436 -3.411 10.49082 16.41184 -7.25574   0.816
 3.42 4.00 -3.409 -3.403 -3.395 -3.379 -3.356 10.63988 16.62829 -7.03934   0.969
 3.42 4.20 -3.355 -3.351 -3.343 -3.328 -3.306 10.78113 16.84196 -6.82572   1.140
 3.42 4.40 -3.306 -3.302 -3.295 -3.281 -3.261 10.91752 17.05360 -6.61411   1.334
 3.42 4.60 -3.262 -3.258 -3.252 -3.239 -3.220 11.04890 17.26317 -6.40453   1.552
 3.42 4.80 -3.221 -3.217 -3.211 -3.199 -3.180 11.17719 17.47108 -6.19659   1.799
 3.42 5.00 -3.180 -3.176 -3.171 -3.159 -3.141 11.30320 17.67752 -5.99012   2.080
 3.42 5.20 -3.139 -3.136 -3.130 -3.119 -3.102 11.42756 17.88267 -5.78496   2.400
 3.42 5.40 -3.096 -3.093 -3.088 -3.077 -3.060 11.55105 18.08689 -5.58074   2.766
 3.42 5.60 -3.050 -3.047 -3.042 -3.031 -3.016 11.67396 18.29023 -5.37746   3.187
 3.42 5.80 -3.000 -2.997 -2.992 -2.982 -2.967 11.79636 18.49297 -5.17478   3.669
 3.42 6.00 -2.946 -2.943 -2.939 -2.929 -2.915 11.91798 18.69513 -4.97265   4.221
 3.42 6.25 -2.874 -2.871 -2.867 -2.858 -2.845 12.06831 18.94712 -4.72055   5.019
 3.42 6.50 -2.797 -2.795 -2.791 -2.783 -2.771 12.21643 19.19866 -4.46890   5.953
 3.42 6.75 -2.717 -2.715 -2.711 -2.704 -2.693 12.36132 19.44992 -4.21757   7.033
 3.42 7.00 -2.635 -2.633 -2.630 -2.623 -2.613 12.50311 19.70088 -3.96658   8.279
 3.42 7.25 -2.551 -2.550 -2.547 -2.540 -2.531 12.64137 19.95148 -3.71601   9.708
 3.42 7.50 -2.467 -2.466 -2.463 -2.457 -2.449 12.77677 20.20194 -3.46559  11.346
 3.42 7.75 -2.383 -2.382 -2.379 -2.374 -2.367 12.90977 20.45236 -3.21524  13.222
 3.42 8.00 -2.300 -2.299 -2.296 -2.292 -2.285 13.04021 20.70269 -2.96497  15.362
 3.44-2.00 -4.417 -4.411 -4.400 -4.381 -4.356  6.20871 10.41963-13.24803   0.006
 3.44-1.50 -4.485 -4.478 -4.466 -4.444 -4.416  6.60021 10.91955-12.74812   0.009
 3.44-1.00 -4.564 -4.556 -4.542 -4.518 -4.485  6.96085 11.41963-12.24803   0.014
 3.44-0.50 -4.641 -4.632 -4.615 -4.587 -4.550  7.29732 11.91955-11.74812   0.020
 3.44 0.00 -4.693 -4.683 -4.664 -4.631 -4.589  7.62315 12.41963-11.24795   0.029
 3.44 0.50 -4.697 -4.685 -4.663 -4.626 -4.577  7.95497 12.91981-10.74788   0.043
 3.44 1.00 -4.626 -4.613 -4.589 -4.548 -4.494  8.30984 13.42029-10.24726   0.065
 3.44 1.25 -4.556 -4.542 -4.518 -4.476 -4.420  8.49915 13.67088 -9.99666   0.081
 3.44 1.50 -4.462 -4.448 -4.424 -4.382 -4.327  8.69408 13.92190 -9.74569   0.101
 3.44 1.75 -4.345 -4.331 -4.308 -4.266 -4.212  8.89416 14.17370 -9.49387   0.127
 3.44 2.00 -4.210 -4.196 -4.173 -4.134 -4.082  9.09656 14.42667 -9.24086   0.160
 3.44 2.25 -4.061 -4.048 -4.026 -3.989 -3.940  9.30014 14.68196 -8.98559   0.203
 3.44 2.50 -3.905 -3.893 -3.873 -3.839 -3.794  9.50529 14.94012 -8.72746   0.257
 3.44 2.75 -3.750 -3.739 -3.721 -3.690 -3.649  9.71205 15.20318 -8.46440   0.326
 3.44 3.00 -3.601 -3.590 -3.574 -3.547 -3.510  9.92028 15.47070 -8.19688   0.414
 3.44 3.20 -3.489 -3.480 -3.466 -3.441 -3.408 10.08850 15.68968 -7.97803   0.502
 3.44 3.40 -3.385 -3.377 -3.364 -3.342 -3.312 10.25673 15.90962 -7.75815   0.609
 3.44 3.60 -3.289 -3.282 -3.271 -3.251 -3.225 10.42417 16.13051 -7.53723   0.739
 3.44 3.80 -3.200 -3.195 -3.185 -3.169 -3.145 10.58897 16.35163 -7.31604   0.893
 3.44 4.00 -3.120 -3.115 -3.108 -3.093 -3.072 10.75128 16.57276 -7.09485   1.077
 3.44 4.20 -3.051 -3.047 -3.040 -3.027 -3.008 10.90623 16.79096 -6.87664   1.287
 3.44 4.40 -2.989 -2.986 -2.980 -2.968 -2.951 11.05554 17.00721 -6.66039   1.529
 3.44 4.60 -2.936 -2.933 -2.928 -2.917 -2.900 11.19836 17.22122 -6.44640   1.802
 3.44 4.80 -2.889 -2.887 -2.881 -2.871 -2.855 11.33545 17.43297 -6.23468   2.110
 3.44 5.00 -2.846 -2.843 -2.838 -2.828 -2.813 11.46790 17.64276 -6.02489   2.457
 3.44 5.20 -2.806 -2.803 -2.799 -2.789 -2.775 11.59599 17.85063 -5.81698   2.847
 3.44 5.40 -2.766 -2.764 -2.759 -2.750 -2.736 11.72183 18.05713 -5.61042   3.291
 3.44 5.60 -2.725 -2.723 -2.719 -2.710 -2.697 11.84567 18.26234 -5.40516   3.795
 3.44 5.80 -2.682 -2.680 -2.676 -2.668 -2.655 11.96836 18.46663 -5.20084   4.371
 3.44 6.00 -2.636 -2.634 -2.630 -2.622 -2.610 12.08991 18.67006 -4.99740   5.027
 3.44 6.25 -2.574 -2.572 -2.568 -2.561 -2.550 12.24096 18.92331 -4.74418   5.982
 3.44 6.50 -2.506 -2.505 -2.501 -2.494 -2.484 12.39041 19.17580 -4.49174   7.106
 3.44 6.75 -2.434 -2.432 -2.429 -2.423 -2.413 12.53795 19.42777 -4.23987   8.422
 3.44 7.00 -2.358 -2.357 -2.354 -2.348 -2.339 12.68314 19.67924 -3.98843   9.954
 3.44 7.25 -2.280 -2.278 -2.276 -2.270 -2.262 12.82506 19.93021 -3.73734  11.721
 3.44 7.50 -2.200 -2.198 -2.196 -2.191 -2.183 12.96398 20.18099 -3.48652  13.754
 3.44 7.75 -2.119 -2.118 -2.116 -2.111 -2.104 13.09987 20.43167 -3.23589  16.084
 3.44 8.00 -2.039 -2.038 -2.036 -2.031 -2.025 13.23274 20.68224 -2.98548  18.743
 3.46-2.00 -4.321 -4.316 -4.306 -4.288 -4.264  6.29292 10.39950-13.26809   0.006
 3.46-1.50 -4.361 -4.355 -4.343 -4.323 -4.296  6.72444 10.89949-12.76802   0.010
 3.46-1.00 -4.412 -4.405 -4.392 -4.369 -4.338  7.12743 11.39950-12.26809   0.016
 3.46-0.50 -4.468 -4.459 -4.444 -4.417 -4.381  7.49859 11.89949-11.76802   0.025
 3.46 0.00 -4.510 -4.500 -4.482 -4.451 -4.409  7.84198 12.39950-11.26801   0.037
 3.46 0.50 -4.516 -4.504 -4.484 -4.448 -4.400  8.16909 12.89960-10.76802   0.054
 3.46 1.00 -4.462 -4.449 -4.426 -4.385 -4.331  8.49541 13.39985-10.26777   0.078
 3.46 1.25 -4.404 -4.391 -4.367 -4.324 -4.268  8.66410 13.65009-10.01748   0.095
 3.46 1.50 -4.324 -4.310 -4.286 -4.243 -4.186  8.83784 13.90048 -9.76700   0.116
 3.46 1.75 -4.218 -4.204 -4.181 -4.139 -4.082  9.01952 14.15127 -9.51626   0.143
 3.46 2.00 -4.090 -4.077 -4.055 -4.014 -3.959  9.20737 14.40261 -9.26504   0.178
 3.46 2.25 -3.942 -3.930 -3.909 -3.872 -3.820  9.40139 14.65488 -9.01273   0.222
 3.46 2.50 -3.783 -3.772 -3.753 -3.718 -3.671  9.59956 14.90854 -8.75895   0.279
 3.46 2.75 -3.616 -3.606 -3.588 -3.558 -3.516  9.80075 15.16504 -8.50246   0.352
 3.46 3.00 -3.448 -3.439 -3.424 -3.398 -3.361 10.00475 15.42488 -8.24268   0.445
 3.46 3.20 -3.318 -3.310 -3.297 -3.273 -3.240 10.17016 15.63676 -8.03082   0.538
 3.46 3.40 -3.194 -3.187 -3.175 -3.154 -3.125 10.33638 15.85145 -7.81614   0.652
 3.46 3.60 -3.078 -3.072 -3.062 -3.044 -3.018 10.50348 16.07018 -7.59742   0.791
 3.46 3.80 -2.970 -2.966 -2.957 -2.942 -2.919 10.67085 16.29083 -7.37678   0.959
 3.46 4.00 -2.872 -2.868 -2.861 -2.848 -2.829 10.83822 16.51148 -7.15615   1.163
 3.46 4.20 -2.786 -2.783 -2.777 -2.765 -2.748 11.00206 16.73211 -6.93556   1.404
 3.46 4.40 -2.708 -2.706 -2.700 -2.690 -2.674 11.16256 16.95269 -6.71506   1.689
 3.46 4.60 -2.640 -2.638 -2.633 -2.624 -2.609 11.31816 17.17176 -6.49602   2.021
 3.46 4.80 -2.581 -2.579 -2.575 -2.566 -2.553 11.46723 17.38779 -6.27990   2.399
 3.46 5.00 -2.528 -2.526 -2.522 -2.514 -2.501 11.61077 17.60173 -6.06586   2.830
 3.46 5.20 -2.483 -2.481 -2.477 -2.469 -2.457 11.74764 17.81325 -5.85432   3.313
 3.46 5.40 -2.440 -2.438 -2.434 -2.427 -2.415 11.88021 18.02294 -5.64462   3.860
 3.46 5.60 -2.399 -2.398 -2.394 -2.387 -2.376 12.00848 18.23082 -5.43674   4.474
 3.46 5.80 -2.359 -2.357 -2.354 -2.347 -2.337 12.13398 18.43731 -5.23025   5.168
 3.46 6.00 -2.318 -2.317 -2.313 -2.307 -2.297 12.25720 18.64256 -5.02503   5.956
 3.46 6.25 -2.264 -2.263 -2.260 -2.253 -2.244 12.40906 18.89774 -4.77000   7.095
 3.46 6.50 -2.206 -2.205 -2.202 -2.196 -2.187 12.55895 19.15168 -4.51613   8.432
 3.46 6.75 -2.144 -2.142 -2.139 -2.134 -2.125 12.70759 19.40459 -4.26311  10.006
 3.46 7.00 -2.076 -2.075 -2.072 -2.067 -2.059 12.85437 19.65677 -4.01082  11.847
 3.46 7.25 -2.005 -2.004 -2.002 -1.997 -1.989 12.99888 19.90835 -3.75918  13.990
 3.46 7.50 -1.932 -1.930 -1.928 -1.924 -1.917 13.14082 20.15957 -3.50794  16.472
 3.46 7.75 -1.856 -1.855 -1.853 -1.849 -1.842 13.27950 20.41058 -3.25693  19.325
 3.46 8.00 -1.780 -1.779 -1.777 -1.773 -1.767 13.41514 20.66134 -3.00621  22.595
 3.48-2.00 -4.266 -4.261 -4.252 -4.236 -4.215  6.32449 10.37912-13.28845   0.006
 3.48-1.50 -4.278 -4.272 -4.261 -4.242 -4.218  6.79176 10.87915-12.78835   0.011
 3.48-1.00 -4.302 -4.295 -4.283 -4.260 -4.231  7.23300 11.37931-12.28836   0.018
 3.48-0.50 -4.329 -4.321 -4.306 -4.280 -4.246  7.64591 11.87921-11.78835   0.029
 3.48 0.00 -4.344 -4.334 -4.317 -4.287 -4.246  8.02735 12.37931-11.28836   0.045
 3.48 0.50 -4.330 -4.319 -4.299 -4.264 -4.216  8.37822 12.87927-10.78835   0.067
 3.48 1.00 -4.270 -4.258 -4.235 -4.195 -4.142  8.70825 13.37931-10.28819   0.098
 3.48 1.25 -4.216 -4.203 -4.179 -4.138 -4.082  8.87003 13.62941-10.03814   0.118
 3.48 1.50 -4.142 -4.129 -4.105 -4.063 -4.006  9.03181 13.87961 -9.78808   0.142
 3.48 1.75 -4.047 -4.034 -4.011 -3.969 -3.912  9.19690 14.12998 -9.53773   0.172
 3.48 2.00 -3.933 -3.920 -3.897 -3.857 -3.802  9.36549 14.38057 -9.28710   0.208
 3.48 2.25 -3.798 -3.785 -3.764 -3.726 -3.674  9.54075 14.63153 -9.03605   0.255
 3.48 2.50 -3.647 -3.636 -3.617 -3.582 -3.534  9.72198 14.88309 -8.78436   0.314
 3.48 2.75 -3.484 -3.474 -3.457 -3.426 -3.383  9.91003 15.13609 -8.53141   0.390
 3.48 3.00 -3.314 -3.306 -3.291 -3.264 -3.226 10.10346 15.39094 -8.27671   0.488
 3.48 3.20 -3.176 -3.169 -3.156 -3.132 -3.099 10.26166 15.59713 -8.07054   0.585
 3.48 3.40 -3.040 -3.034 -3.022 -3.002 -2.973 10.42244 15.80574 -7.86193   0.704
 3.48 3.60 -2.908 -2.903 -2.893 -2.875 -2.850 10.58657 16.01766 -7.64999   0.850
 3.48 3.80 -2.783 -2.778 -2.770 -2.755 -2.734 10.75227 16.23300 -7.43464   1.029
 3.48 4.00 -2.665 -2.662 -2.655 -2.642 -2.624 10.91813 16.45086 -7.21674   1.245
 3.48 4.20 -2.561 -2.558 -2.552 -2.541 -2.526 11.08410 16.67208 -6.99546   1.507
 3.48 4.40 -2.466 -2.463 -2.459 -2.449 -2.435 11.25006 16.89329 -6.77418   1.825
 3.48 4.60 -2.382 -2.380 -2.375 -2.367 -2.354 11.41410 17.11420 -6.55323   2.204
 3.48 4.80 -2.308 -2.306 -2.302 -2.294 -2.282 11.57319 17.33410 -6.33336   2.648
 3.48 5.00 -2.241 -2.239 -2.236 -2.229 -2.218 11.72827 17.55303 -6.11453   3.165
 3.48 5.20 -2.184 -2.182 -2.179 -2.172 -2.162 11.87655 17.76880 -5.89876   3.754
 3.48 5.40 -2.133 -2.131 -2.128 -2.122 -2.112 12.01943 17.98246 -5.68510   4.425
 3.48 5.60 -2.086 -2.085 -2.082 -2.076 -2.066 12.15639 18.19388 -5.47367   5.181
 3.48 5.80 -2.044 -2.042 -2.039 -2.033 -2.024 12.28850 18.40339 -5.26416   6.033
 3.48 6.00 -2.003 -2.001 -1.999 -1.993 -1.984 12.41664 18.61119 -5.05636   6.992
 3.48 6.25 -1.953 -1.951 -1.949 -1.943 -1.935 12.57228 18.86889 -4.79866   8.364
 3.48 6.50 -1.901 -1.900 -1.897 -1.892 -1.884 12.72444 19.12483 -4.54272   9.965
 3.48 6.75 -1.847 -1.846 -1.843 -1.838 -1.831 12.87414 19.37932 -4.28822  11.841
 3.48 7.00 -1.789 -1.788 -1.785 -1.781 -1.774 13.02160 19.63276 -4.03480  14.033
 3.48 7.25 -1.727 -1.725 -1.723 -1.719 -1.712 13.16746 19.88538 -3.78226  16.597
 3.48 7.50 -1.661 -1.660 -1.658 -1.654 -1.647 13.31112 20.13735 -3.53033  19.580
 3.48 7.75 -1.593 -1.591 -1.589 -1.585 -1.579 13.45199 20.38888 -3.27878  23.027
 3.48 8.00 -1.523 -1.522 -1.520 -1.516 -1.510 13.59028 20.63988 -3.02771  27.002
 3.50-2.00 -4.241 -4.237 -4.229 -4.217 -4.201  6.32160 10.35946-13.30812   0.006
 3.50-1.50 -4.234 -4.229 -4.219 -4.203 -4.181  6.81043 10.85944-12.80827   0.011
 3.50-1.00 -4.231 -4.225 -4.214 -4.193 -4.166  7.28398 11.35946-12.30812   0.019
 3.50-0.50 -4.231 -4.224 -4.210 -4.185 -4.153  7.73255 11.85950-11.80799   0.031
 3.50 0.00 -4.217 -4.208 -4.191 -4.162 -4.123  8.15259 12.35965-11.30803   0.050
 3.50 0.50 -4.171 -4.160 -4.141 -4.106 -4.060  8.54133 12.85956-10.80799   0.079
 3.50 1.00 -4.084 -4.072 -4.050 -4.011 -3.958  8.89829 13.35965-10.30795   0.119
 3.50 1.25 -4.021 -4.009 -3.986 -3.946 -3.891  9.06653 13.60969-10.05797   0.145
 3.50 1.50 -3.944 -3.931 -3.908 -3.867 -3.812  9.23121 13.85974 -9.80799   0.175
 3.50 1.75 -3.850 -3.837 -3.815 -3.774 -3.719  9.39261 14.10992 -9.55778   0.210
 3.50 2.00 -3.741 -3.729 -3.707 -3.668 -3.614  9.55400 14.36022 -9.30742   0.253
 3.50 2.25 -3.616 -3.605 -3.584 -3.547 -3.497  9.71704 14.61063 -9.05698   0.305
 3.50 2.50 -3.479 -3.468 -3.450 -3.415 -3.369  9.88218 14.86130 -8.80632   0.369
 3.50 2.75 -3.329 -3.319 -3.302 -3.272 -3.229 10.05319 15.11265 -8.55493   0.449
 3.50 3.00 -3.169 -3.161 -3.146 -3.119 -3.082 10.22968 15.36493 -8.30260   0.551
 3.50 3.20 -3.036 -3.028 -3.015 -2.991 -2.958 10.37592 15.56799 -8.09951   0.652
 3.50 3.40 -2.900 -2.894 -2.882 -2.861 -2.832 10.52607 15.77256 -7.89494   0.776
 3.50 3.60 -2.764 -2.758 -2.748 -2.730 -2.705 10.68036 15.97914 -7.68838   0.926
 3.50 3.80 -2.629 -2.624 -2.616 -2.601 -2.580 10.83815 16.18865 -7.47891   1.110
 3.50 4.00 -2.498 -2.494 -2.488 -2.475 -2.458 10.99900 16.40088 -7.26672   1.336
 3.50 4.20 -2.377 -2.374 -2.368 -2.358 -2.343 11.16398 16.61752 -7.05005   1.616
 3.50 4.40 -2.264 -2.262 -2.257 -2.248 -2.235 11.32896 16.83607 -6.83148   1.954
 3.50 4.60 -2.162 -2.160 -2.156 -2.148 -2.137 11.49376 17.05681 -6.61073   2.363
 3.50 4.80 -2.072 -2.070 -2.066 -2.059 -2.048 11.65769 17.27832 -6.38924   2.853
 3.50 5.00 -1.990 -1.988 -1.985 -1.978 -1.969 11.82073 17.49982 -6.16775   3.442
 3.50 5.20 -1.919 -1.917 -1.914 -1.908 -1.899 11.97807 17.71928 -5.94833   4.125
 3.50 5.40 -1.855 -1.854 -1.851 -1.845 -1.837 12.13082 17.93706 -5.73058   4.919
 3.50 5.60 -1.799 -1.797 -1.794 -1.789 -1.781 12.27808 18.15263 -5.51501   5.827
 3.50 5.80 -1.748 -1.747 -1.744 -1.739 -1.731 12.41945 18.36569 -5.30191   6.857
 3.50 6.00 -1.702 -1.701 -1.698 -1.693 -1.686 12.55570 18.57669 -5.09087   8.022
 3.50 6.25 -1.649 -1.648 -1.646 -1.641 -1.634 12.71868 18.83762 -4.82995   9.678
 3.50 6.50 -1.599 -1.598 -1.596 -1.591 -1.584 12.87605 19.09621 -4.57138  11.600
 3.50 6.75 -1.550 -1.549 -1.546 -1.542 -1.535 13.02892 19.35288 -4.31475  13.831
 3.50 7.00 -1.499 -1.497 -1.495 -1.491 -1.485 13.17840 19.60799 -4.05963  16.428
 3.50 7.25 -1.445 -1.444 -1.441 -1.437 -1.431 13.32537 19.86174 -3.80577  19.458
 3.50 7.50 -1.388 -1.387 -1.384 -1.381 -1.375 13.46982 20.11461 -3.55284  22.980
 3.50 7.75 -1.328 -1.326 -1.324 -1.321 -1.315 13.61203 20.36692 -3.30057  27.068
 3.50 8.00 -1.265 -1.264 -1.262 -1.258 -1.253 13.75189 20.61857 -3.04905  31.797
 3.52-2.00 -4.222 -4.219 -4.214 -4.206 -4.196  6.31133 10.33945-13.32818   0.006
 3.52-1.50 -4.213 -4.209 -4.202 -4.190 -4.175  6.80414 10.83942-12.82827   0.010
 3.52-1.00 -4.197 -4.192 -4.182 -4.166 -4.144  7.29469 11.33945-12.32809   0.018
 3.52-0.50 -4.174 -4.167 -4.154 -4.132 -4.103  7.77284 11.83948-11.82827   0.032
 3.52 0.00 -4.132 -4.124 -4.108 -4.081 -4.044  8.22789 12.33945-11.32809   0.054
 3.52 0.50 -4.055 -4.045 -4.026 -3.993 -3.948  8.65437 12.83954-10.82798   0.088
 3.52 1.00 -3.931 -3.919 -3.898 -3.860 -3.809  9.04961 13.33965-10.32799   0.138
 3.52 1.25 -3.852 -3.840 -3.818 -3.779 -3.725  9.23460 13.58963-10.07799   0.171
 3.52 1.50 -3.761 -3.749 -3.726 -3.686 -3.632  9.41229 13.83960 -9.82798   0.210
 3.52 1.75 -3.658 -3.646 -3.624 -3.584 -3.531  9.58264 14.08969 -9.57789   0.256
 3.52 2.00 -3.544 -3.532 -3.511 -3.473 -3.421  9.74850 14.33985 -9.32772   0.310
 3.52 2.25 -3.419 -3.408 -3.388 -3.353 -3.304  9.90982 14.59005 -9.07748   0.373
 3.52 2.50 -3.287 -3.276 -3.258 -3.226 -3.181 10.07115 14.84036 -8.82711   0.449
 3.52 2.75 -3.146 -3.136 -3.120 -3.091 -3.050 10.23294 15.09097 -8.57650   0.541
 3.52 3.00 -2.998 -2.990 -2.976 -2.950 -2.914 10.39550 15.34203 -8.32551   0.652
 3.52 3.20 -2.875 -2.867 -2.855 -2.831 -2.799 10.52929 15.54347 -8.12408   0.761
 3.52 3.40 -2.748 -2.741 -2.730 -2.709 -2.681 10.66621 15.74572 -7.92186   0.891
 3.52 3.60 -2.617 -2.612 -2.602 -2.584 -2.559 10.80686 15.94903 -7.71857   1.047
 3.52 3.80 -2.485 -2.480 -2.472 -2.457 -2.435 10.95204 16.15423 -7.51338   1.238
 3.52 4.00 -2.352 -2.348 -2.341 -2.329 -2.311 11.10140 16.36135 -7.30627   1.470
 3.52 4.20 -2.223 -2.220 -2.214 -2.204 -2.188 11.25604 16.57189 -7.09579   1.756
 3.52 4.40 -2.098 -2.096 -2.091 -2.082 -2.069 11.41396 16.78528 -6.88244   2.106
 3.52 4.60 -1.982 -1.979 -1.976 -1.968 -1.957 11.57600 17.00266 -6.66503   2.538
 3.52 4.80 -1.874 -1.872 -1.869 -1.862 -1.852 11.73968 17.22245 -6.44520   3.064
 3.52 5.00 -1.775 -1.774 -1.771 -1.765 -1.756 11.90336 17.44295 -6.22468   3.699
 3.52 5.20 -1.689 -1.688 -1.685 -1.679 -1.671 12.06532 17.66394 -6.00370   4.457
 3.52 5.40 -1.611 -1.610 -1.607 -1.602 -1.594 12.22527 17.88492 -5.78272   5.358
 3.52 5.60 -1.542 -1.541 -1.538 -1.533 -1.526 12.38156 18.10464 -5.56299   6.415
 3.52 5.80 -1.481 -1.479 -1.477 -1.472 -1.465 12.53203 18.32159 -5.34601   7.629
 3.52 6.00 -1.426 -1.424 -1.422 -1.418 -1.411 12.67761 18.53656 -5.13100   9.021
 3.52 6.25 -1.365 -1.364 -1.362 -1.357 -1.351 12.85106 18.80184 -4.86581  11.015
 3.52 6.50 -1.311 -1.310 -1.307 -1.303 -1.297 13.01703 19.06409 -4.60363  13.334
 3.52 6.75 -1.260 -1.259 -1.257 -1.253 -1.247 13.17591 19.32343 -4.34423  16.011
 3.52 7.00 -1.212 -1.211 -1.209 -1.205 -1.199 13.32960 19.58070 -4.08693  19.110
 3.52 7.25 -1.163 -1.162 -1.160 -1.157 -1.151 13.47916 19.83632 -3.83135  22.701
 3.52 7.50 -1.113 -1.112 -1.110 -1.107 -1.101 13.62531 20.09061 -3.57708  26.860
 3.52 7.75 -1.061 -1.060 -1.058 -1.054 -1.049 13.76889 20.34393 -3.32374  31.688
 3.52 8.00 -1.007 -1.006 -1.004 -1.000 -0.994 13.90961 20.59616 -3.07145  37.260
 3.54-2.00 -4.182 -4.180 -4.177 -4.171 -4.164  6.32572 10.31952-13.34814   0.006
 3.54-1.50 -4.190 -4.187 -4.183 -4.175 -4.165  6.79927 10.81941-12.84832   0.010
 3.54-1.00 -4.179 -4.176 -4.169 -4.157 -4.142  7.28758 11.31952-12.34814   0.018
 3.54-0.50 -4.149 -4.144 -4.134 -4.117 -4.094  7.77786 11.81941-11.84832   0.031
 3.54 0.00 -4.090 -4.082 -4.069 -4.045 -4.012  8.25912 12.31952-11.34814   0.054
 3.54 0.50 -3.984 -3.975 -3.957 -3.927 -3.885  8.71908 12.81948-10.84802   0.092
 3.54 1.00 -3.825 -3.814 -3.794 -3.757 -3.709  9.15076 13.31952-10.34804   0.152
 3.54 1.25 -3.727 -3.716 -3.694 -3.657 -3.606  9.35483 13.56953-10.09804   0.192
 3.54 1.50 -3.617 -3.605 -3.584 -3.545 -3.492  9.55084 13.81954 -9.84802   0.241
 3.54 1.75 -3.498 -3.486 -3.464 -3.426 -3.374  9.73819 14.06963 -9.59799   0.299
 3.54 2.00 -3.369 -3.358 -3.337 -3.300 -3.250  9.91792 14.31973 -9.34795   0.368
 3.54 2.25 -3.235 -3.224 -3.205 -3.171 -3.124 10.08985 14.56983 -9.09786   0.448
 3.54 2.50 -3.097 -3.087 -3.069 -3.038 -2.994 10.25672 14.81994 -8.84771   0.543
 3.54 2.75 -2.955 -2.946 -2.930 -2.902 -2.863 10.41855 15.07024 -8.59737   0.654
 3.54 3.00 -2.811 -2.803 -2.789 -2.764 -2.729 10.57978 15.32077 -8.34679   0.788
 3.54 3.20 -2.693 -2.685 -2.673 -2.651 -2.619 10.70850 15.52146 -8.14609   0.914
 3.54 3.40 -2.573 -2.567 -2.556 -2.536 -2.508 10.83721 15.72253 -7.94503   1.060
 3.54 3.60 -2.450 -2.445 -2.435 -2.418 -2.394 10.96724 15.92414 -7.74344   1.231
 3.54 3.80 -2.326 -2.321 -2.313 -2.298 -2.277 11.10072 16.12682 -7.54076   1.435
 3.54 4.00 -2.199 -2.195 -2.189 -2.176 -2.158 11.23704 16.33062 -7.33696   1.679
 3.54 4.20 -2.073 -2.070 -2.064 -2.053 -2.038 11.37815 16.53654 -7.13109   1.975
 3.54 4.40 -1.947 -1.945 -1.940 -1.931 -1.917 11.52358 16.74483 -6.92287   2.335
 3.54 4.60 -1.825 -1.823 -1.819 -1.811 -1.799 11.67432 16.95630 -6.71139   2.777
 3.54 4.80 -1.707 -1.706 -1.702 -1.695 -1.685 11.82941 17.17115 -6.49647   3.320
 3.54 5.00 -1.596 -1.594 -1.591 -1.585 -1.576 11.98753 17.38864 -6.27893   3.983
 3.54 5.20 -1.495 -1.493 -1.490 -1.485 -1.477 12.14903 17.60981 -6.05779   4.797
 3.54 5.40 -1.402 -1.400 -1.398 -1.393 -1.385 12.31054 17.83098 -5.83664   5.776
 3.54 5.60 -1.318 -1.317 -1.315 -1.310 -1.303 12.47084 18.05191 -5.61573   6.947
 3.54 5.80 -1.244 -1.243 -1.241 -1.237 -1.230 12.62771 18.27199 -5.39565   8.323
 3.54 6.00 -1.178 -1.177 -1.175 -1.171 -1.164 12.78161 18.49122 -5.17640   9.937
 3.54 6.25 -1.106 -1.105 -1.103 -1.099 -1.093 12.96558 18.76093 -4.90663  12.281
 3.54 6.50 -1.043 -1.042 -1.040 -1.036 -1.030 13.14176 19.02735 -4.64017  15.042
 3.54 6.75 -0.987 -0.986 -0.984 -0.980 -0.975 13.30924 19.29041 -4.37718  18.242
 3.54 7.00 -0.936 -0.935 -0.933 -0.930 -0.924 13.46982 19.55072 -4.11691  21.947
 3.54 7.25 -0.889 -0.888 -0.886 -0.882 -0.877 13.62422 19.80845 -3.85902  26.215
 3.54 7.50 -0.843 -0.842 -0.840 -0.836 -0.831 13.77371 20.06446 -3.60293  31.138
 3.54 7.75 -0.796 -0.795 -0.793 -0.789 -0.784 13.91946 20.31933 -3.34813  36.830
 3.54 8.00 -0.749 -0.748 -0.746 -0.742 -0.736 14.06108 20.57287 -3.09480  43.358
 3.56-2.00 -4.071 -4.070 -4.068 -4.064 -4.059  6.43441 10.29929-13.36825   0.007
 3.56-1.50 -4.129 -4.127 -4.124 -4.119 -4.111  6.84292 10.79934-12.86838   0.010
 3.56-1.00 -4.148 -4.145 -4.141 -4.133 -4.123  7.29491 11.29929-12.36825   0.018
 3.56-0.50 -4.133 -4.129 -4.122 -4.110 -4.095  7.77349 11.79934-11.86838   0.030
 3.56 0.00 -4.077 -4.071 -4.061 -4.042 -4.019  8.26126 12.29929-11.36825   0.053
 3.56 0.50 -3.959 -3.951 -3.936 -3.910 -3.876  8.74343 12.79934-10.86838   0.093
 3.56 1.00 -3.770 -3.759 -3.741 -3.708 -3.664  9.20710 13.29951-10.36815   0.158
 3.56 1.25 -3.653 -3.642 -3.622 -3.587 -3.540  9.42847 13.54946-10.11809   0.204
 3.56 1.50 -3.523 -3.511 -3.491 -3.454 -3.405  9.64237 13.79941 -9.86806   0.262
 3.56 1.75 -3.384 -3.373 -3.352 -3.316 -3.267  9.84829 14.04946 -9.61805   0.332
 3.56 2.00 -3.238 -3.226 -3.206 -3.171 -3.123 10.04611 14.29951 -9.36805   0.416
 3.56 2.25 -3.087 -3.077 -3.058 -3.025 -2.980 10.23520 14.54956 -9.11806   0.517
 3.56 2.50 -2.935 -2.926 -2.908 -2.878 -2.835 10.41648 14.79962 -8.86806   0.638
 3.56 2.75 -2.784 -2.775 -2.759 -2.732 -2.694 10.58975 15.04983 -8.61787   0.779
 3.56 3.00 -2.633 -2.625 -2.611 -2.587 -2.553 10.75747 15.30016 -8.36754   0.944
 3.56 3.20 -2.512 -2.506 -2.493 -2.471 -2.441 10.88730 15.50049 -8.16722   1.096
 3.56 3.40 -2.393 -2.387 -2.376 -2.356 -2.329 11.01637 15.70097 -7.96675   1.272
 3.56 3.60 -2.273 -2.267 -2.258 -2.240 -2.216 11.14471 15.90173 -7.76599   1.475
 3.56 3.80 -2.152 -2.147 -2.139 -2.124 -2.103 11.27288 16.10312 -7.56458   1.709
 3.56 4.00 -2.031 -2.027 -2.020 -2.007 -1.989 11.40106 16.30514 -7.36251   1.981
 3.56 4.20 -1.909 -1.906 -1.900 -1.889 -1.873 11.53213 16.50826 -7.15932   2.304
 3.56 4.40 -1.788 -1.785 -1.780 -1.771 -1.757 11.66584 16.71290 -6.95462   2.687
 3.56 4.60 -1.667 -1.665 -1.661 -1.653 -1.640 11.80312 16.91961 -6.74791   3.148
 3.56 4.80 -1.549 -1.547 -1.543 -1.536 -1.525 11.94524 17.12934 -6.53826   3.707
 3.56 5.00 -1.433 -1.431 -1.428 -1.422 -1.412 12.09167 17.34183 -6.32587   4.388
 3.56 5.20 -1.323 -1.322 -1.319 -1.314 -1.305 12.24466 17.55868 -6.10895   5.233
 3.56 5.40 -1.219 -1.218 -1.216 -1.211 -1.203 12.39985 17.77736 -5.89021   6.257
 3.56 5.60 -1.124 -1.123 -1.121 -1.116 -1.109 12.55742 17.99813 -5.66942   7.501
 3.56 5.80 -1.038 -1.037 -1.035 -1.030 -1.024 12.71569 18.21960 -5.44797   9.000
 3.56 6.00 -0.959 -0.958 -0.956 -0.952 -0.946 12.87396 18.44107 -5.22651  10.799
 3.56 6.25 -0.874 -0.873 -0.871 -0.867 -0.861 13.06545 18.71493 -4.95268  13.463
 3.56 6.50 -0.799 -0.798 -0.796 -0.792 -0.787 13.25115 18.98615 -4.68152  16.672
 3.56 6.75 -0.734 -0.733 -0.732 -0.728 -0.722 13.42803 19.25334 -4.41434  20.437
 3.56 7.00 -0.678 -0.677 -0.675 -0.671 -0.666 13.59726 19.51733 -4.15034  24.832
 3.56 7.25 -0.627 -0.626 -0.624 -0.621 -0.615 13.75849 19.77815 -3.88947  29.898
 3.56 7.50 -0.581 -0.580 -0.578 -0.574 -0.569 13.91329 20.03663 -3.63097  35.731
 3.56 7.75 -0.537 -0.536 -0.534 -0.530 -0.524 14.06287 20.29336 -3.37424  42.447
 3.56 8.00 -0.493 -0.492 -0.490 -0.487 -0.481 14.20683 20.54815 -3.11947  50.099
 3.58-2.00 -3.863 -3.862 -3.860 -3.857 -3.853  6.67201 10.27921-13.38828   0.008
 3.58-1.50 -3.980 -3.978 -3.976 -3.972 -3.966  7.00475 10.77931-12.88840   0.012
 3.58-1.00 -4.058 -4.056 -4.053 -4.048 -4.040  7.37912 11.27944-12.38828   0.019
 3.58-0.50 -4.088 -4.085 -4.081 -4.073 -4.061  7.80195 11.77931-11.88840   0.031
 3.58 0.00 -4.060 -4.056 -4.049 -4.037 -4.020  8.26435 12.27944-11.38817   0.052
 3.58 0.50 -3.957 -3.951 -3.940 -3.921 -3.896  8.74562 12.77938-10.88840   0.091
 3.58 1.00 -3.760 -3.752 -3.737 -3.710 -3.675  9.22686 13.27944-10.38817   0.158
 3.58 1.25 -3.630 -3.620 -3.604 -3.574 -3.534  9.46203 13.52941-10.13810   0.207
 3.58 1.50 -3.481 -3.471 -3.453 -3.421 -3.378  9.69214 13.77938 -9.88807   0.271
 3.58 1.75 -3.323 -3.313 -3.294 -3.261 -3.217  9.91461 14.02940 -9.63806   0.350
 3.58 2.00 -3.156 -3.146 -3.127 -3.094 -3.050 10.12969 14.27944 -9.38806   0.448
 3.58 2.25 -2.988 -2.978 -2.960 -2.929 -2.886 10.33671 14.52948 -9.13807   0.569
 3.58 2.50 -2.818 -2.808 -2.791 -2.762 -2.721 10.53555 14.77952 -8.88807   0.715
 3.58 2.75 -2.650 -2.642 -2.626 -2.600 -2.563 10.72555 15.02969 -8.63795   0.890
 3.58 3.00 -2.486 -2.478 -2.464 -2.440 -2.406 10.90757 15.27990 -8.38775   1.097
 3.58 3.20 -2.357 -2.350 -2.338 -2.316 -2.285 11.04707 15.48007 -8.18754   1.288
 3.58 3.40 -2.231 -2.224 -2.213 -2.194 -2.166 11.18290 15.68027 -7.98724   1.506
 3.58 3.60 -2.106 -2.101 -2.091 -2.073 -2.049 11.31464 15.88062 -7.78683   1.753
 3.58 3.80 -1.983 -1.978 -1.970 -1.954 -1.933 11.44427 16.08134 -7.58616   2.035
 3.58 4.00 -1.862 -1.858 -1.850 -1.837 -1.817 11.57287 16.28240 -7.38521   2.360
 3.58 4.20 -1.741 -1.737 -1.731 -1.719 -1.702 11.70070 16.48403 -7.18357   2.734
 3.58 4.40 -1.621 -1.618 -1.613 -1.603 -1.588 11.82852 16.68653 -6.98103   3.167
 3.58 4.60 -1.502 -1.500 -1.495 -1.486 -1.473 11.95747 16.89021 -6.77731   3.674
 3.58 4.80 -1.385 -1.383 -1.379 -1.371 -1.359 12.08955 17.09599 -6.57154   4.277
 3.58 5.00 -1.269 -1.267 -1.264 -1.257 -1.247 12.22427 17.30384 -6.36371   4.994
 3.58 5.20 -1.157 -1.155 -1.152 -1.147 -1.137 12.36415 17.51534 -6.15225   5.867
 3.58 5.40 -1.049 -1.047 -1.045 -1.040 -1.032 12.50811 17.72967 -5.93795   6.925
 3.58 5.60 -0.947 -0.946 -0.943 -0.939 -0.931 12.65789 17.94810 -5.71958   8.229
 3.58 5.80 -0.852 -0.851 -0.849 -0.845 -0.838 12.81086 18.16858 -5.49913   9.814
 3.58 6.00 -0.764 -0.763 -0.761 -0.757 -0.751 12.96435 18.38917 -5.27852  11.711
 3.58 6.25 -0.666 -0.666 -0.664 -0.660 -0.654 13.15662 18.66497 -5.00264  14.612
 3.58 6.50 -0.580 -0.579 -0.577 -0.573 -0.568 13.34889 18.94077 -4.72677  18.232
 3.58 6.75 -0.505 -0.504 -0.502 -0.498 -0.493 13.53308 19.21214 -4.45542  22.539
 3.58 7.00 -0.439 -0.438 -0.437 -0.433 -0.428 13.71071 19.48029 -4.18729  27.654
 3.58 7.25 -0.383 -0.382 -0.380 -0.376 -0.371 13.87974 19.74459 -3.92286  33.594
 3.58 7.50 -0.333 -0.332 -0.330 -0.326 -0.321 14.04139 20.00604 -3.66134  40.465
 3.58 7.75 -0.288 -0.287 -0.285 -0.281 -0.275 14.19621 20.26526 -3.40219  48.361
 3.58 8.00 -0.246 -0.245 -0.243 -0.239 -0.233 14.34400 20.52205 -3.14557  57.334
 3.60-2.00 -3.587 -3.586 -3.584 -3.581 -3.576  6.98753 10.25912-13.40838   0.012
 3.60-1.50 -3.744 -3.743 -3.741 -3.737 -3.731  7.27807 10.75929-12.90833   0.016
 3.60-1.00 -3.875 -3.874 -3.871 -3.866 -3.859  7.58883 11.25936-12.40827   0.023
 3.60-0.50 -3.967 -3.965 -3.961 -3.955 -3.945  7.93288 11.75937-11.90833   0.035
 3.60 0.00 -3.998 -3.995 -3.989 -3.980 -3.967  8.32366 12.25936-11.40816   0.055
 3.60 0.50 -3.939 -3.935 -3.927 -3.914 -3.895  8.76268 12.75937-10.90833   0.091
 3.60 1.00 -3.767 -3.761 -3.749 -3.730 -3.704  9.23274 13.25935-10.40816   0.156
 3.60 1.25 -3.637 -3.630 -3.617 -3.595 -3.564  9.47156 13.50936-10.15825   0.205
 3.60 1.50 -3.483 -3.475 -3.460 -3.435 -3.401  9.71037 13.75937 -9.90833   0.270
 3.60 1.75 -3.311 -3.303 -3.287 -3.260 -3.224  9.94507 14.00936 -9.65825   0.354
 3.60 2.00 -3.127 -3.118 -3.102 -3.073 -3.036 10.17551 14.25936 -9.40816   0.461
 3.60 2.25 -2.939 -2.930 -2.914 -2.886 -2.849 10.39828 14.50944 -9.15807   0.596
 3.60 2.50 -2.750 -2.741 -2.725 -2.698 -2.661 10.61374 14.75952 -8.90798   0.764
 3.60 2.75 -2.564 -2.556 -2.541 -2.516 -2.481 10.82096 15.00956 -8.65796   0.970
 3.60 3.00 -2.382 -2.374 -2.361 -2.337 -2.304 11.01995 15.25959 -8.40793   1.220
 3.60 3.20 -2.240 -2.233 -2.221 -2.199 -2.169 11.17267 15.45969 -8.20786   1.455
 3.60 3.40 -2.102 -2.096 -2.085 -2.065 -2.037 11.32028 15.65986 -8.00772   1.724
 3.60 3.60 -1.968 -1.962 -1.952 -1.934 -1.909 11.46245 15.86010 -7.80751   2.031
 3.60 3.80 -1.837 -1.832 -1.823 -1.807 -1.784 11.60021 16.06048 -7.60714   2.380
 3.60 4.00 -1.709 -1.705 -1.697 -1.683 -1.662 11.73424 16.26103 -7.40660   2.777
 3.60 4.20 -1.584 -1.580 -1.574 -1.561 -1.543 11.86415 16.46189 -7.20571   3.225
 3.60 4.40 -1.461 -1.458 -1.452 -1.441 -1.425 11.99314 16.66324 -7.00432   3.741
 3.60 4.60 -1.340 -1.338 -1.333 -1.323 -1.309 12.12122 16.86526 -6.80229   4.336
 3.60 4.80 -1.222 -1.219 -1.215 -1.207 -1.194 12.24908 17.06858 -6.59899   5.023
 3.60 5.00 -1.105 -1.103 -1.099 -1.092 -1.081 12.37694 17.27323 -6.39437   5.820
 3.60 5.20 -0.991 -0.990 -0.986 -0.980 -0.970 12.50792 17.48035 -6.18721   6.767
 3.60 5.40 -0.881 -0.879 -0.877 -0.871 -0.862 12.64164 17.69006 -5.97745   7.893
 3.60 5.60 -0.775 -0.774 -0.772 -0.767 -0.759 12.77940 17.90331 -5.76421   9.249
 3.60 5.80 -0.676 -0.675 -0.673 -0.668 -0.661 12.92172 18.11986 -5.54774  10.895
 3.60 6.00 -0.583 -0.582 -0.580 -0.576 -0.569 13.06744 18.33866 -5.32901  12.884
 3.60 6.25 -0.477 -0.476 -0.474 -0.470 -0.464 13.25559 18.61543 -5.05224  16.002
 3.60 6.50 -0.381 -0.380 -0.378 -0.374 -0.368 13.44373 18.89221 -4.77547  19.875
 3.60 6.75 -0.297 -0.296 -0.294 -0.290 -0.284 13.63011 19.16693 -4.50069  24.633
 3.60 7.00 -0.223 -0.222 -0.220 -0.216 -0.210 13.81405 19.43949 -4.22805  30.441
 3.60 7.25 -0.158 -0.157 -0.155 -0.151 -0.146 13.98971 19.70785 -3.95971  37.265
 3.60 7.50 -0.102 -0.101 -0.099 -0.095 -0.089 14.15836 19.97294 -3.69465  45.251
 3.60 7.75 -0.054 -0.052 -0.050 -0.046 -0.040 14.31913 20.23503 -3.43256  54.450
 3.60 8.00 -0.011 -0.009 -0.007 -0.003  0.002 14.47232 20.49401 -3.17354  64.946
 3.62-2.00 -3.275 -3.273 -3.271 -3.267 -3.262  7.33325 10.23880-13.42876   0.017
 3.62-1.50 -3.458 -3.456 -3.454 -3.450 -3.443  7.60433 10.73902-12.92849   0.023
 3.62-1.00 -3.622 -3.620 -3.617 -3.612 -3.605  7.88417 11.23930-12.42841   0.032
 3.62-0.50 -3.758 -3.756 -3.752 -3.746 -3.738  8.17898 11.73926-11.92849   0.045
 3.62 0.00 -3.846 -3.843 -3.839 -3.831 -3.820  8.49941 12.23930-11.42829   0.065
 3.62 0.50 -3.854 -3.851 -3.845 -3.834 -3.819  8.86028 12.73934-10.92812   0.099
 3.62 1.00 -3.741 -3.737 -3.728 -3.714 -3.693  9.27138 13.23930-10.42829   0.159
 3.62 1.25 -3.632 -3.627 -3.617 -3.600 -3.577  9.49473 13.48932-10.17820   0.206
 3.62 1.50 -3.491 -3.485 -3.474 -3.455 -3.429  9.72428 13.73934 -9.92812   0.268
 3.62 1.75 -3.323 -3.316 -3.304 -3.283 -3.254  9.95953 13.98932 -9.67815   0.351
 3.62 2.00 -3.135 -3.127 -3.114 -3.092 -3.061 10.19479 14.23930 -9.42817   0.461
 3.62 2.25 -2.935 -2.928 -2.914 -2.891 -2.859 10.42758 14.48935 -9.17815   0.603
 3.62 2.50 -2.730 -2.722 -2.708 -2.685 -2.653 10.65734 14.73941 -8.92812   0.785
 3.62 2.75 -2.526 -2.519 -2.506 -2.482 -2.451 10.87960 14.98948 -8.67809   1.014
 3.62 3.00 -2.325 -2.318 -2.305 -2.283 -2.252 11.09482 15.23955 -8.42806   1.300
 3.62 3.20 -2.170 -2.163 -2.151 -2.130 -2.101 11.26097 15.43959 -8.22795   1.574
 3.62 3.40 -2.018 -2.011 -2.000 -1.980 -1.952 11.42181 15.63963 -8.02782   1.893
 3.62 3.60 -1.870 -1.864 -1.853 -1.835 -1.809 11.57702 15.83973 -7.82769   2.264
 3.62 3.80 -1.727 -1.721 -1.712 -1.695 -1.671 11.72674 16.03996 -7.62754   2.689
 3.62 4.00 -1.588 -1.583 -1.575 -1.559 -1.537 11.87134 16.24030 -7.42736   3.177
 3.62 4.20 -1.453 -1.449 -1.442 -1.428 -1.408 12.01050 16.44077 -7.22687   3.729
 3.62 4.40 -1.323 -1.319 -1.313 -1.301 -1.283 12.14604 16.64149 -7.02607   4.359
 3.62 4.60 -1.196 -1.193 -1.187 -1.177 -1.161 12.27739 16.84255 -6.82493   5.071
 3.62 4.80 -1.072 -1.069 -1.065 -1.055 -1.041 12.40675 17.04437 -6.62312   5.885
 3.62 5.00 -0.951 -0.949 -0.945 -0.937 -0.924 12.53542 17.24699 -6.42056   6.825
 3.62 5.20 -0.834 -0.832 -0.828 -0.821 -0.810 12.66363 17.45122 -6.21640   7.911
 3.62 5.40 -0.720 -0.718 -0.715 -0.709 -0.699 12.79184 17.65738 -6.01033   9.169
 3.62 5.60 -0.610 -0.609 -0.607 -0.601 -0.592 12.92149 17.86610 -5.80165  10.645
 3.62 5.80 -0.507 -0.506 -0.504 -0.499 -0.491 13.05467 18.07809 -5.58965  12.410
 3.62 6.00 -0.410 -0.409 -0.406 -0.402 -0.394 13.19061 18.29292 -5.37479  14.513
 3.62 6.25 -0.298 -0.297 -0.294 -0.290 -0.283 13.36737 18.56715 -5.10057  17.787
 3.62 6.50 -0.196 -0.195 -0.193 -0.189 -0.182 13.54753 18.84261 -4.82507  21.886
 3.62 6.75 -0.105 -0.104 -0.102 -0.098 -0.091 13.73088 19.11888 -4.54872  27.030
 3.62 7.00 -0.024 -0.023 -0.021 -0.017 -0.010 13.91424 19.39515 -4.27238  33.382
 3.62 7.25  0.046  0.047  0.049  0.054  0.060 14.09302 19.66731 -4.00022  41.011
 3.62 7.50  0.109  0.110  0.112  0.116  0.123 14.26717 19.93636 -3.73119  50.115
 3.62 7.75  0.162  0.163  0.166  0.170  0.177 14.43308 20.20178 -3.46576  60.664
 3.62 8.00  0.209  0.210  0.212  0.217  0.224 14.59195 20.46374 -3.20377  72.843
 3.64-2.00 -2.944 -2.942 -2.940 -2.935 -2.929  7.68287 10.21827-13.44940   0.025
 3.64-1.50 -3.145 -3.143 -3.141 -3.136 -3.129  7.94478 10.71867-12.94885   0.034
 3.64-1.00 -3.331 -3.329 -3.326 -3.320 -3.313  8.21085 11.21906-12.44855   0.046
 3.64-0.50 -3.495 -3.492 -3.489 -3.482 -3.473  8.48316 11.71917-11.94846   0.063
 3.64 0.00 -3.620 -3.617 -3.613 -3.605 -3.594  8.76678 12.21932-11.44831   0.087
 3.64 0.50 -3.678 -3.675 -3.669 -3.660 -3.646  9.07041 12.71933-10.94846   0.123
 3.64 1.00 -3.631 -3.627 -3.620 -3.608 -3.590  9.40671 13.21932-10.44818   0.182
 3.64 1.25 -3.557 -3.553 -3.545 -3.531 -3.511  9.59248 13.46933-10.19811   0.225
 3.64 1.50 -3.449 -3.444 -3.435 -3.420 -3.398  9.79014 13.71933 -9.94808   0.283
 3.64 1.75 -3.307 -3.301 -3.291 -3.274 -3.250 10.00153 13.96933 -9.69813   0.361
 3.64 2.00 -3.137 -3.131 -3.120 -3.102 -3.076 10.22167 14.21932 -9.44818   0.465
 3.64 2.25 -2.944 -2.938 -2.927 -2.907 -2.880 10.45123 14.46936 -9.19813   0.606
 3.64 2.50 -2.738 -2.732 -2.720 -2.700 -2.672 10.68079 14.71941 -8.94808   0.789
 3.64 2.75 -2.526 -2.519 -2.507 -2.487 -2.458 10.90992 14.96950 -8.69806   1.027
 3.64 3.00 -2.311 -2.304 -2.293 -2.272 -2.244 11.13830 15.21958 -8.44806   1.335
 3.64 3.20 -2.142 -2.136 -2.125 -2.105 -2.077 11.31529 15.41958 -8.24807   1.637
 3.64 3.40 -1.977 -1.970 -1.959 -1.940 -1.913 11.48800 15.61958 -8.04807   1.997
 3.64 3.60 -1.815 -1.809 -1.799 -1.780 -1.754 11.65595 15.81960 -7.84803   2.423
 3.64 3.80 -1.658 -1.653 -1.643 -1.625 -1.601 11.81839 16.01969 -7.64790   2.922
 3.64 4.00 -1.505 -1.500 -1.492 -1.475 -1.452 11.97557 16.21985 -7.44770   3.501
 3.64 4.20 -1.358 -1.354 -1.346 -1.331 -1.310 12.12680 16.42014 -7.24747   4.167
 3.64 4.40 -1.216 -1.212 -1.205 -1.192 -1.172 12.27299 16.62060 -7.04713   4.931
 3.64 4.60 -1.079 -1.075 -1.069 -1.057 -1.040 12.41379 16.82126 -6.84656   5.798
 3.64 4.80 -0.946 -0.943 -0.938 -0.927 -0.912 12.55041 17.02229 -6.64545   6.785
 3.64 5.00 -0.818 -0.815 -0.811 -0.802 -0.787 12.68359 17.22375 -6.44382   7.910
 3.64 5.20 -0.694 -0.692 -0.688 -0.680 -0.667 12.81257 17.42620 -6.24141   9.178
 3.64 5.40 -0.574 -0.572 -0.569 -0.562 -0.551 12.94155 17.62991 -6.03780  10.649
 3.64 5.60 -0.459 -0.458 -0.455 -0.449 -0.439 13.07054 17.83529 -5.83247  12.354
 3.64 5.80 -0.350 -0.349 -0.346 -0.341 -0.332 13.19962 18.04329 -5.62439  14.333
 3.64 6.00 -0.247 -0.246 -0.243 -0.238 -0.230 13.32879 18.25382 -5.41375  16.629
 3.64 6.25 -0.128 -0.127 -0.125 -0.120 -0.112 13.49553 18.52265 -5.14486  20.147
 3.64 6.50 -0.020 -0.019 -0.017 -0.012 -0.005 13.66605 18.79525 -4.87225  24.516
 3.64 6.75  0.075  0.076  0.079  0.083  0.091 13.84258 19.07207 -4.59550  30.041
 3.64 7.00  0.161  0.162  0.165  0.169  0.176 14.01912 19.34889 -4.31876  36.810
 3.64 7.25  0.237  0.238  0.241  0.245  0.252 14.19551 19.62387 -4.04381  45.098
 3.64 7.50  0.304  0.305  0.308  0.313  0.320 14.37162 19.89686 -3.77083  55.234
 3.64 7.75  0.362  0.364  0.366  0.371  0.378 14.54029 20.16573 -3.50191  67.073
 3.64 8.00  0.413  0.414  0.416  0.422  0.429 14.70389 20.43120 -3.23635  80.979
 3.66-2.00 -2.605 -2.603 -2.600 -2.596 -2.588  8.02816 10.19645-13.47108   0.036
 3.66-1.50 -2.820 -2.818 -2.815 -2.809 -2.801  8.28578 10.69767-12.96981   0.049
 3.66-1.00 -3.022 -3.020 -3.016 -3.010 -3.001  8.54506 11.19838-12.46916   0.066
 3.66-0.50 -3.204 -3.202 -3.198 -3.190 -3.180  8.80733 11.69880-11.96859   0.089
 3.66 0.00 -3.353 -3.350 -3.345 -3.337 -3.325  9.07445 12.19921-11.46852   0.121
 3.66 0.50 -3.442 -3.438 -3.433 -3.423 -3.408  9.35025 12.69923-10.96859   0.167
 3.66 1.00 -3.436 -3.432 -3.425 -3.413 -3.396  9.64138 13.19921-10.46827   0.233
 3.66 1.25 -3.389 -3.385 -3.378 -3.365 -3.346  9.79622 13.44925-10.21820   0.278
 3.66 1.50 -3.313 -3.308 -3.300 -3.286 -3.266  9.95914 13.69932 -9.96819   0.336
 3.66 1.75 -3.206 -3.201 -3.192 -3.176 -3.154 10.13292 13.94940 -9.71823   0.410
 3.66 2.00 -3.071 -3.065 -3.056 -3.040 -3.016 10.31785 14.19948 -9.46827   0.507
 3.66 2.25 -2.910 -2.904 -2.894 -2.876 -2.851 10.51653 14.44940 -9.21823   0.637
 3.66 2.50 -2.727 -2.721 -2.710 -2.692 -2.667 10.72558 14.69932 -8.96819   0.811
 3.66 2.75 -2.527 -2.520 -2.509 -2.491 -2.465 10.94625 14.94940 -8.71816   1.046
 3.66 3.00 -2.316 -2.309 -2.298 -2.279 -2.253 11.16938 15.19948 -8.46814   1.353
 3.66 3.20 -2.143 -2.137 -2.126 -2.107 -2.080 11.34918 15.39945 -8.26816   1.664
 3.66 3.40 -1.970 -1.963 -1.953 -1.934 -1.908 11.52898 15.59942 -8.06818   2.046
 3.66 3.60 -1.798 -1.792 -1.781 -1.763 -1.737 11.70674 15.79947 -7.86815   2.510
 3.66 3.80 -1.629 -1.623 -1.613 -1.595 -1.571 11.87953 15.99960 -7.66804   3.063
 3.66 4.00 -1.463 -1.458 -1.449 -1.432 -1.408 12.04844 16.19976 -7.46788   3.721
 3.66 4.20 -1.303 -1.298 -1.290 -1.274 -1.252 12.21174 16.39991 -7.26772   4.490
 3.66 4.40 -1.147 -1.143 -1.135 -1.121 -1.100 12.36987 16.60009 -7.06751   5.387
 3.66 4.60 -0.997 -0.993 -0.986 -0.973 -0.954 12.52243 16.80039 -6.86719   6.421
 3.66 4.80 -0.852 -0.849 -0.843 -0.831 -0.814 12.66963 17.00101 -6.66659   7.607
 3.66 5.00 -0.712 -0.710 -0.705 -0.694 -0.679 12.81198 17.20194 -6.46572   8.962
 3.66 5.20 -0.579 -0.577 -0.572 -0.563 -0.549 12.94915 17.40335 -6.26426  10.494
 3.66 5.40 -0.450 -0.448 -0.445 -0.437 -0.424 13.08329 17.60552 -6.06201  12.245
 3.66 5.60 -0.328 -0.326 -0.323 -0.316 -0.305 13.21378 17.80874 -5.85875  14.231
 3.66 5.80 -0.212 -0.211 -0.208 -0.201 -0.191 13.34290 18.01386 -5.65367  16.514
 3.66 6.00 -0.101 -0.100 -0.097 -0.092 -0.082 13.47202 18.22089 -5.44672  19.163
 3.66 6.25  0.025  0.026  0.029  0.035  0.044 13.63419 18.48432 -5.18331  23.097
 3.66 6.50  0.142  0.143  0.145  0.151  0.159 13.79741 18.75220 -4.91542  27.868
 3.66 6.75  0.246  0.247  0.249  0.255  0.263 13.96503 19.02644 -4.64122  33.804
 3.66 7.00  0.337  0.339  0.341  0.346  0.355 14.13481 19.30190 -4.36572  41.105
 3.66 7.25  0.418  0.419  0.421  0.427  0.435 14.30691 19.57816 -4.08938  50.106
 3.66 7.50  0.488  0.489  0.492  0.497  0.505 14.47900 19.85443 -3.81304  61.078
 3.66 7.75  0.549  0.551  0.553  0.559  0.567 14.64709 20.12653 -3.54093  74.118
 3.66 8.00  0.603  0.604  0.607  0.612  0.621 14.81251 20.39585 -3.27165  89.671
 3.68-2.00 -2.266 -2.264 -2.261 -2.256 -2.248  8.36078 10.17290-13.49471   0.052
 3.68-1.50 -2.490 -2.488 -2.485 -2.479 -2.470  8.61679 10.67569-12.99183   0.070
 3.68-1.00 -2.704 -2.701 -2.698 -2.691 -2.681  8.87321 11.17725-12.49026   0.094
 3.68-0.50 -2.901 -2.898 -2.893 -2.885 -2.874  9.13098 11.67815-11.98928   0.126
 3.68 0.00 -3.067 -3.063 -3.058 -3.049 -3.035  9.39058 12.17869-11.48879   0.171
 3.68 0.50 -3.176 -3.172 -3.166 -3.155 -3.139  9.65408 12.67897-10.98843   0.231
 3.68 1.00 -3.195 -3.190 -3.183 -3.170 -3.152  9.92438 13.17927-10.48838   0.315
 3.68 1.25 -3.163 -3.159 -3.151 -3.137 -3.118 10.06366 13.42926-10.23841   0.370
 3.68 1.50 -3.105 -3.100 -3.092 -3.077 -3.056 10.20683 13.67925 -9.98843   0.436
 3.68 1.75 -3.021 -3.015 -3.007 -2.991 -2.969 10.35555 13.92925 -9.73834   0.517
 3.68 2.00 -2.914 -2.908 -2.899 -2.882 -2.860 10.51095 14.17927 -9.48825   0.619
 3.68 2.25 -2.785 -2.779 -2.769 -2.752 -2.728 10.67537 14.42929 -9.23834   0.748
 3.68 2.50 -2.637 -2.631 -2.621 -2.603 -2.579 10.84973 14.67934 -8.98843   0.915
 3.68 2.75 -2.470 -2.464 -2.453 -2.435 -2.410 11.03697 14.92945 -8.73827   1.135
 3.68 3.00 -2.287 -2.281 -2.270 -2.251 -2.226 11.23502 15.17955 -8.48812   1.425
 3.68 3.20 -2.129 -2.123 -2.112 -2.093 -2.067 11.40303 15.37950 -8.28806   1.729
 3.68 3.40 -1.964 -1.958 -1.947 -1.928 -1.903 11.57410 15.57945 -8.08802   2.106
 3.68 3.60 -1.795 -1.789 -1.778 -1.759 -1.734 11.74841 15.77944 -7.88800   2.574
 3.68 3.80 -1.623 -1.617 -1.606 -1.588 -1.563 11.92370 15.97948 -7.68799   3.150
 3.68 4.00 -1.451 -1.445 -1.435 -1.418 -1.393 12.09899 16.17955 -7.48798   3.854
 3.68 4.20 -1.281 -1.276 -1.266 -1.250 -1.226 12.27035 16.37964 -7.28788   4.695
 3.68 4.40 -1.114 -1.109 -1.101 -1.085 -1.063 12.43837 16.57979 -7.08770   5.697
 3.68 4.60 -0.951 -0.947 -0.940 -0.925 -0.904 12.60215 16.78002 -6.88747   6.880
 3.68 4.80 -0.793 -0.790 -0.783 -0.770 -0.751 12.76046 16.98041 -6.68712   8.255
 3.68 5.00 -0.641 -0.638 -0.632 -0.621 -0.603 12.91381 17.18099 -6.48665   9.848
 3.68 5.20 -0.495 -0.493 -0.488 -0.478 -0.462 13.06129 17.38183 -6.28586  11.670
 3.68 5.40 -0.355 -0.353 -0.349 -0.340 -0.326 13.20419 17.58313 -6.08460  13.757
 3.68 5.60 -0.222 -0.220 -0.217 -0.209 -0.196 13.34208 17.78503 -5.88270  16.124
 3.68 5.80 -0.097 -0.095 -0.092 -0.085 -0.073 13.47657 17.98816 -5.67949  18.825
 3.68 6.00  0.022  0.023  0.026  0.033  0.043 13.60863 18.19257 -5.47496  21.916
 3.68 6.25  0.159  0.161  0.164  0.170  0.180 13.77058 18.45164 -5.21584  26.407
 3.68 6.50  0.286  0.288  0.290  0.296  0.306 13.93252 18.71475 -4.95272  31.819
 3.68 6.75  0.400  0.402  0.404  0.410  0.420 14.09564 18.98405 -4.68353  38.391
 3.68 7.00  0.501  0.502  0.505  0.511  0.520 14.25983 19.25696 -4.41072  46.377
 3.68 7.25  0.587  0.589  0.592  0.598  0.607 14.42639 19.53370 -4.13401  56.182
 3.68 7.50  0.662  0.664  0.667  0.673  0.682 14.59295 19.81043 -3.85730  68.059
 3.68 7.75  0.726  0.728  0.730  0.737  0.746 14.75785 20.08500 -3.58268  82.289
 3.68 8.00  0.781  0.783  0.786  0.792  0.802 14.92163 20.35813 -3.30945  99.366
 3.70-2.00 -1.932 -1.931 -1.928 -1.922 -1.914  8.67743 10.14489-13.52273   0.073
 3.70-1.50 -2.162 -2.160 -2.157 -2.151 -2.141  8.93576 10.65108-13.01651   0.099
 3.70-1.00 -2.384 -2.381 -2.377 -2.370 -2.359  9.19201 11.15473-12.51286   0.133
 3.70-0.50 -2.590 -2.587 -2.583 -2.574 -2.562  9.44778 11.65667-12.01091   0.178
 3.70 0.00 -2.769 -2.766 -2.760 -2.750 -2.736  9.70432 12.15776-11.50976   0.239
 3.70 0.50 -2.895 -2.891 -2.884 -2.873 -2.856  9.96232 12.65849-11.00908   0.322
 3.70 1.00 -2.933 -2.928 -2.920 -2.906 -2.887 10.22324 13.15897-10.50864   0.435
 3.70 1.25 -2.911 -2.906 -2.897 -2.883 -2.862 10.35551 13.40901-10.25857   0.506
 3.70 1.50 -2.863 -2.857 -2.849 -2.833 -2.811 10.48954 13.65906-10.00851   0.590
 3.70 1.75 -2.791 -2.785 -2.776 -2.759 -2.736 10.62609 13.90916 -9.75843   0.691
 3.70 2.00 -2.699 -2.693 -2.683 -2.666 -2.642 10.76582 14.15927 -9.50836   0.812
 3.70 2.25 -2.590 -2.584 -2.574 -2.556 -2.531 10.90994 14.40926 -9.25835   0.958
 3.70 2.50 -2.466 -2.460 -2.450 -2.431 -2.406 11.05956 14.65925 -9.00833   1.138
 3.70 2.75 -2.329 -2.322 -2.311 -2.293 -2.267 11.21700 14.90925 -8.75828   1.364
 3.70 3.00 -2.178 -2.172 -2.161 -2.142 -2.116 11.38310 15.15927 -8.50822   1.652
 3.70 3.20 -2.047 -2.040 -2.029 -2.010 -1.984 11.52408 15.35929 -8.30823   1.943
 3.70 3.40 -1.907 -1.900 -1.889 -1.870 -1.844 11.67172 15.55932 -8.10824   2.303
 3.70 3.60 -1.758 -1.751 -1.741 -1.721 -1.695 11.82739 15.75939 -7.90821   2.755
 3.70 3.80 -1.601 -1.594 -1.584 -1.565 -1.539 11.98907 15.95948 -7.70814   3.319
 3.70 4.00 -1.438 -1.432 -1.422 -1.403 -1.378 12.15473 16.15957 -7.50808   4.016
 3.70 4.20 -1.270 -1.264 -1.255 -1.237 -1.212 12.32448 16.35959 -7.30804   4.882
 3.70 4.40 -1.100 -1.095 -1.086 -1.069 -1.046 12.49422 16.55962 -7.10800   5.936
 3.70 4.60 -0.931 -0.927 -0.919 -0.903 -0.881 12.66293 16.75968 -6.90792   7.208
 3.70 4.80 -0.764 -0.761 -0.753 -0.739 -0.718 12.82860 16.95987 -6.70770   8.723
 3.70 5.00 -0.601 -0.598 -0.591 -0.579 -0.559 12.99163 17.16017 -6.50738  10.525
 3.70 5.20 -0.443 -0.441 -0.435 -0.424 -0.406 13.14907 17.36070 -6.30686  12.617
 3.70 5.40 -0.291 -0.288 -0.284 -0.274 -0.258 13.30190 17.56155 -6.10603  15.045
 3.70 5.60 -0.146 -0.144 -0.140 -0.131 -0.117 13.44957 17.76278 -5.90483  17.833
 3.70 5.80 -0.009 -0.008 -0.004  0.003  0.016 13.59247 17.96478 -5.70285  21.021
 3.70 6.00  0.120  0.122  0.125  0.132  0.145 13.73127 18.16761 -5.50004  24.663
 3.70 6.25  0.270  0.271  0.274  0.281  0.293 13.89892 18.42348 -5.24410  29.915
 3.70 6.50  0.408  0.410  0.413  0.420  0.431 14.06371 18.68242 -4.98506  36.165
 3.70 6.75  0.534  0.536  0.539  0.546  0.556 14.22608 18.94667 -4.72086  43.597
 3.70 7.00  0.646  0.648  0.651  0.657  0.668 14.38846 19.21537 -4.45223  52.557
 3.70 7.25  0.743  0.744  0.747  0.754  0.765 14.55110 19.49019 -4.17735  63.381
 3.70 7.50  0.825  0.827  0.830  0.836  0.847 14.71374 19.76582 -3.90170  76.435
 3.70 7.75  0.893  0.895  0.898  0.905  0.915 14.87504 20.04172 -3.62581  92.030
 3.70 8.00  0.951  0.953  0.956  0.963  0.974 15.03543 20.31806 -3.34950 110.690
 3.73-2.00 -1.450 -1.449 -1.446 -1.440 -1.431  9.10653 10.08636-13.58137   0.116
 3.73-1.50 -1.682 -1.680 -1.677 -1.670 -1.660  9.37803 10.60444-13.06318   0.159
 3.73-1.00 -1.908 -1.905 -1.902 -1.894 -1.883  9.64088 11.11528-12.55238   0.215
 3.73-0.50 -2.122 -2.119 -2.115 -2.106 -2.094  9.89900 11.62128-12.04634   0.289
 3.73 0.00 -2.313 -2.310 -2.304 -2.294 -2.279 10.15503 12.12483-11.54272   0.388
 3.73 0.50 -2.457 -2.453 -2.446 -2.434 -2.416 10.41044 12.62675-11.04082   0.521
 3.73 1.00 -2.519 -2.514 -2.505 -2.491 -2.470 10.66614 13.12808-10.53970   0.699
 3.73 1.25 -2.509 -2.504 -2.495 -2.479 -2.457 10.79448 13.37835-10.28931   0.810
 3.73 1.50 -2.474 -2.468 -2.458 -2.442 -2.418 10.92330 13.62859-10.03901   0.940
 3.73 1.75 -2.414 -2.408 -2.398 -2.381 -2.356 11.05281 13.87883 -9.78880   1.091
 3.73 2.00 -2.335 -2.329 -2.319 -2.301 -2.275 11.18327 14.12905 -9.53865   1.268
 3.73 2.25 -2.241 -2.235 -2.224 -2.206 -2.179 11.31522 14.37908 -9.28853   1.476
 3.73 2.50 -2.136 -2.129 -2.118 -2.099 -2.073 11.44902 14.62910 -9.03844   1.722
 3.73 2.75 -2.020 -2.014 -2.003 -1.983 -1.956 11.58542 14.87924 -8.78839   2.015
 3.73 3.00 -1.897 -1.891 -1.879 -1.860 -1.832 11.72509 15.12937 -8.53835   2.366
 3.73 3.20 -1.792 -1.786 -1.774 -1.755 -1.727 11.84005 15.32934 -8.33831   2.701
 3.73 3.40 -1.683 -1.676 -1.665 -1.645 -1.617 11.95854 15.52932 -8.13827   3.095
 3.73 3.60 -1.567 -1.561 -1.550 -1.530 -1.502 12.08108 15.72931 -7.93824   3.564
 3.73 3.80 -1.445 -1.439 -1.428 -1.408 -1.380 12.20893 15.92933 -7.73822   4.129
 3.73 4.00 -1.317 -1.311 -1.300 -1.281 -1.253 12.34203 16.12937 -7.53820   4.813
 3.73 4.20 -1.180 -1.174 -1.164 -1.144 -1.118 12.48216 16.32942 -7.33817   5.656
 3.73 4.40 -1.036 -1.030 -1.021 -1.002 -0.976 12.62789 16.52948 -7.13813   6.690
 3.73 4.60 -0.884 -0.879 -0.870 -0.853 -0.828 12.78066 16.72954 -6.93806   7.975
 3.73 4.80 -0.726 -0.722 -0.714 -0.697 -0.674 12.93757 16.92961 -6.73793   9.553
 3.73 5.00 -0.565 -0.561 -0.554 -0.539 -0.517 13.09621 17.12969 -6.53775  11.467
 3.73 5.20 -0.402 -0.399 -0.392 -0.379 -0.358 13.25617 17.32997 -6.33751  13.787
 3.73 5.40 -0.239 -0.236 -0.231 -0.219 -0.201 13.41612 17.53043 -6.13715  16.576
 3.73 5.60 -0.081 -0.079 -0.074 -0.064 -0.047 13.57442 17.73109 -5.93659  19.891
 3.73 5.80  0.070  0.072  0.076  0.086  0.101 13.72863 17.93210 -5.73561  23.756
 3.73 6.00  0.218  0.220  0.223  0.232  0.246 13.87961 18.13354 -5.53417  28.265
 3.73 6.25  0.386  0.388  0.392  0.400  0.414 14.06116 18.38655 -5.28114  34.838
 3.73 6.50  0.545  0.547  0.551  0.559  0.572 14.23679 18.64137 -5.02627  42.647
 3.73 6.75  0.691  0.692  0.696  0.704  0.717 14.40654 18.89975 -4.76790  51.848
 3.73 7.00  0.823  0.824  0.828  0.836  0.848 14.57252 19.16197 -4.50571  62.763
 3.73 7.25  0.938  0.940  0.944  0.951  0.964 14.73584 19.43002 -4.23773  75.746
 3.73 7.50  1.038  1.040  1.043  1.051  1.063 14.89664 19.70200 -3.96577  91.151
 3.73 7.75  1.119  1.121  1.124  1.132  1.145 15.05538 19.97698 -3.69072 109.429
 3.73 8.00  1.186  1.187  1.191  1.199  1.211 15.21192 20.25527 -3.41229 131.038
 3.76-2.00 -1.011 -1.009 -1.006 -1.000 -0.991  9.44979  9.98945-13.67819   0.166
 3.76-1.50 -1.227 -1.225 -1.222 -1.215 -1.205  9.75937 10.53173-13.13585   0.238
 3.76-1.00 -1.447 -1.445 -1.441 -1.434 -1.423 10.04376 11.05956-12.60801   0.330
 3.76-0.50 -1.659 -1.657 -1.653 -1.645 -1.632 10.31366 11.57634-12.09125   0.450
 3.76 0.00 -1.852 -1.849 -1.844 -1.835 -1.821 10.57542 12.08636-11.58137   0.608
 3.76 0.50 -2.004 -2.001 -1.995 -1.983 -1.966 10.83302 12.59196-11.07567   0.818
 3.76 1.00 -2.084 -2.079 -2.072 -2.058 -2.037 11.08849 13.09517-10.57235   1.098
 3.76 1.25 -2.087 -2.082 -2.073 -2.058 -2.036 11.21605 13.34624-10.32135   1.272
 3.76 1.50 -2.064 -2.058 -2.049 -2.033 -2.009 11.34361 13.59704-10.07058   1.473
 3.76 1.75 -2.016 -2.011 -2.001 -1.984 -1.959 11.47121 13.84753 -9.81993   1.706
 3.76 2.00 -1.950 -1.944 -1.934 -1.916 -1.890 11.59890 14.09795 -9.56944   1.976
 3.76 2.25 -1.867 -1.861 -1.851 -1.832 -1.806 11.72704 14.34835 -9.31916   2.290
 3.76 2.50 -1.773 -1.767 -1.756 -1.738 -1.711 11.85570 14.59868 -9.06895   2.656
 3.76 2.75 -1.669 -1.663 -1.653 -1.634 -1.607 11.98528 14.84887 -8.81878   3.083
 3.76 3.00 -1.560 -1.554 -1.543 -1.524 -1.496 12.11594 15.09899 -8.56864   3.584
 3.76 3.20 -1.467 -1.461 -1.450 -1.431 -1.403 12.22150 15.29904 -8.36855   4.047
 3.76 3.40 -1.372 -1.366 -1.355 -1.335 -1.307 12.32832 15.49909 -8.16847   4.577
 3.76 3.60 -1.273 -1.267 -1.256 -1.236 -1.208 12.43659 15.69916 -7.96842   5.185
 3.76 3.80 -1.171 -1.165 -1.154 -1.134 -1.106 12.54708 15.89925 -7.76837   5.888
 3.76 4.00 -1.065 -1.060 -1.049 -1.029 -1.001 12.65982 16.09934 -7.56832   6.704
 3.76 4.20 -0.954 -0.948 -0.938 -0.918 -0.890 12.77561 16.29934 -7.36827   7.660
 3.76 4.40 -0.839 -0.833 -0.823 -0.804 -0.776 12.89496 16.49934 -7.16821   8.788
 3.76 4.60 -0.717 -0.712 -0.702 -0.684 -0.657 13.01844 16.69941 -6.96816  10.131
 3.76 4.80 -0.589 -0.584 -0.575 -0.558 -0.532 13.14692 16.89954 -6.76808  11.745
 3.76 5.00 -0.455 -0.451 -0.443 -0.427 -0.402 13.28012 17.09968 -6.56799  13.691
 3.76 5.20 -0.314 -0.310 -0.303 -0.288 -0.265 13.41939 17.29981 -6.36787  16.072
 3.76 5.40 -0.167 -0.164 -0.158 -0.145 -0.124 13.56250 17.49993 -6.16769  18.952
 3.76 5.60 -0.018 -0.016 -0.010  0.001  0.020 13.71045 17.70015 -5.96742  22.473
 3.76 5.80  0.131  0.134  0.139  0.149  0.167 13.86037 17.90065 -5.76694  26.708
 3.76 6.00  0.283  0.284  0.289  0.299  0.315 14.01030 18.10140 -5.56623  31.742
 3.76 6.25  0.461  0.463  0.467  0.477  0.493 14.19693 18.35296 -5.31467  39.351
 3.76 6.50  0.634  0.636  0.641  0.650  0.666 14.38238 18.60552 -5.06208  48.714
 3.76 6.75  0.797  0.799  0.803  0.812  0.828 14.56178 18.86011 -4.80751  59.887
 3.76 7.00  0.950  0.952  0.956  0.965  0.980 14.73648 19.11727 -4.55037  73.225
 3.76 7.25  1.086  1.088  1.092  1.101  1.116 14.90587 19.37892 -4.28872  88.994
 3.76 7.50  1.207  1.209  1.213  1.222  1.236 15.07078 19.64493 -4.02269 107.601
 3.76 7.75  1.308  1.310  1.314  1.323  1.337 15.23176 19.91604 -3.75157 129.508
 3.76 8.00  1.391  1.393  1.397  1.406  1.420 15.38863 20.19201 -3.47560 155.135
 3.79-2.00 -0.685 -0.684 -0.681 -0.674 -0.664  9.64856  9.86255-13.80493   0.202
 3.79-1.50 -0.834 -0.833 -0.829 -0.822 -0.812 10.03623 10.41913-13.24857   0.316
 3.79-1.00 -1.019 -1.018 -1.014 -1.007 -0.995 10.37383 10.97183-12.69573   0.466
 3.79-0.50 -1.213 -1.211 -1.207 -1.200 -1.188 10.67550 11.51014-12.15745   0.659
 3.79 0.00 -1.395 -1.393 -1.389 -1.380 -1.367 10.95535 12.03463-11.63283   0.910
 3.79 0.50 -1.544 -1.541 -1.536 -1.526 -1.510 11.22272 12.54937-11.11816   1.238
 3.79 1.00 -1.631 -1.628 -1.621 -1.608 -1.589 11.48302 13.05805-10.60960   1.671
 3.79 1.25 -1.643 -1.639 -1.632 -1.618 -1.598 11.61166 13.31081-10.35681   1.937
 3.79 1.50 -1.633 -1.628 -1.620 -1.605 -1.583 11.73973 13.56289-10.10469   2.245
 3.79 1.75 -1.599 -1.594 -1.586 -1.570 -1.547 11.86735 13.81441 -9.85310   2.601
 3.79 2.00 -1.546 -1.541 -1.532 -1.516 -1.492 11.99480 14.06558 -9.60189   3.012
 3.79 2.25 -1.476 -1.471 -1.462 -1.445 -1.421 12.12212 14.31653 -9.35099   3.487
 3.79 2.50 -1.394 -1.389 -1.380 -1.363 -1.337 12.24944 14.56726 -9.10029   4.037
 3.79 2.75 -1.302 -1.297 -1.288 -1.270 -1.245 12.37692 14.81779 -8.84972   4.675
 3.79 3.00 -1.203 -1.198 -1.189 -1.171 -1.145 12.50461 15.06819 -8.59929   5.416
 3.79 3.20 -1.120 -1.115 -1.105 -1.087 -1.061 12.60711 15.26842 -8.39909   6.095
 3.79 3.40 -1.034 -1.029 -1.019 -1.000 -0.974 12.71002 15.46860 -8.19893   6.862
 3.79 3.60 -0.945 -0.940 -0.930 -0.911 -0.884 12.81345 15.66873 -7.99881   7.730
 3.79 3.80 -0.853 -0.848 -0.838 -0.819 -0.792 12.91773 15.86883 -7.79870   8.715
 3.79 4.00 -0.760 -0.754 -0.744 -0.725 -0.698 13.02284 16.06893 -7.59860   9.835
 3.79 4.20 -0.662 -0.657 -0.647 -0.628 -0.600 13.12901 16.26902 -7.39850  11.114
 3.79 4.40 -0.562 -0.557 -0.547 -0.528 -0.501 13.23660 16.46910 -7.19842  12.581
 3.79 4.60 -0.458 -0.453 -0.444 -0.425 -0.398 13.34583 16.66917 -6.99835  14.268
 3.79 4.80 -0.350 -0.346 -0.336 -0.319 -0.292 13.45746 16.86924 -6.79830  16.225
 3.79 5.00 -0.238 -0.234 -0.226 -0.209 -0.183 13.57148 17.06930 -6.59826  18.500
 3.79 5.20 -0.121 -0.117 -0.109 -0.093 -0.069 13.68869 17.26940 -6.39818  21.172
 3.79 5.40  0.000  0.004  0.010  0.025  0.048 13.80930 17.46953 -6.19807  24.325
 3.79 5.60  0.126  0.129  0.135  0.148  0.170 13.93380 17.66971 -5.99790  28.074
 3.79 5.80  0.257  0.259  0.264  0.276  0.296 14.06235 17.87000 -5.79762  32.551
 3.79 6.00  0.390  0.392  0.397  0.408  0.426 14.19452 18.07041 -5.59722  37.901
 3.79 6.25  0.554  0.556  0.561  0.571  0.589 14.36555 18.32122 -5.34643  46.152
 3.79 6.50  0.720  0.722  0.727  0.737  0.755 14.53920 18.57253 -5.09512  56.368
 3.79 6.75  0.884  0.886  0.891  0.901  0.918 14.71504 18.82492 -4.84268  69.014
 3.79 7.00  1.045  1.047  1.052  1.062  1.079 14.89087 19.07882 -4.58872  84.498
 3.79 7.25  1.196  1.198  1.202  1.212  1.229 15.06358 19.33562 -4.33193 103.086
 3.79 7.50  1.336  1.338  1.342  1.352  1.369 15.23325 19.59583 -4.07176 125.325
 3.79 7.75  1.458  1.460  1.464  1.474  1.490 15.39787 19.86138 -3.80616 151.479
 3.79 8.00  1.561  1.563  1.568  1.577  1.593 15.55811 20.13162 -3.53581 182.172
 3.82-2.00 -0.549 -0.547 -0.544 -0.536 -0.524  9.69819  9.77568-13.89177   0.207
 3.82-1.50 -0.593 -0.591 -0.587 -0.579 -0.567 10.16227 10.30341-13.36411   0.353
 3.82-1.00 -0.683 -0.681 -0.677 -0.670 -0.657 10.58377 10.85248-12.81503   0.573
 3.82-0.50 -0.816 -0.814 -0.810 -0.802 -0.790 10.95182 11.40976-12.25790   0.876
 3.82 0.00 -0.961 -0.959 -0.955 -0.947 -0.935 11.27439 11.95765-11.70997   1.270
 3.82 0.50 -1.088 -1.086 -1.081 -1.072 -1.058 11.56679 12.49052-11.17705   1.778
 3.82 1.00 -1.169 -1.166 -1.161 -1.150 -1.133 11.84117 13.01115-10.65659   2.438
 3.82 1.25 -1.185 -1.182 -1.176 -1.164 -1.146 11.97425 13.26790-10.39974   2.842
 3.82 1.50 -1.182 -1.179 -1.173 -1.160 -1.140 12.10551 13.52310-10.14448   3.305
 3.82 1.75 -1.161 -1.157 -1.150 -1.137 -1.116 12.23532 13.77712 -9.89053   3.838
 3.82 2.00 -1.122 -1.118 -1.111 -1.096 -1.075 12.36418 14.03020 -9.63752   4.451
 3.82 2.25 -1.067 -1.063 -1.055 -1.040 -1.018 12.49226 14.28243 -9.38523   5.158
 3.82 2.50 -0.999 -0.995 -0.987 -0.972 -0.949 12.61993 14.53415 -9.13348   5.975
 3.82 2.75 -0.921 -0.917 -0.909 -0.893 -0.870 12.74721 14.78557 -8.88215   6.919
 3.82 3.00 -0.835 -0.831 -0.822 -0.806 -0.783 12.87448 15.03663 -8.63116   8.011
 3.82 3.20 -0.761 -0.757 -0.748 -0.732 -0.708 12.97631 15.23709 -8.43057   9.007
 3.82 3.40 -0.684 -0.679 -0.671 -0.654 -0.630 13.07813 15.43750 -8.23009  10.126
 3.82 3.60 -0.604 -0.599 -0.591 -0.574 -0.549 13.18001 15.63790 -8.02970  11.386
 3.82 3.80 -0.521 -0.516 -0.507 -0.490 -0.465 13.28209 15.83828 -7.82938  12.807
 3.82 4.00 -0.436 -0.432 -0.422 -0.405 -0.380 13.38435 16.03862 -7.62912  14.409
 3.82 4.20 -0.348 -0.344 -0.334 -0.317 -0.291 13.48717 16.23870 -7.42895  16.220
 3.82 4.40 -0.258 -0.254 -0.245 -0.227 -0.201 13.59056 16.43879 -7.22879  18.269
 3.82 4.60 -0.165 -0.161 -0.152 -0.134 -0.108 13.69458 16.63886 -7.02864  20.593
 3.82 4.80 -0.069 -0.065 -0.056 -0.039 -0.013 13.79953 16.83894 -6.82850  23.237
 3.82 5.00  0.029  0.033  0.041  0.058  0.083 13.90547 17.03902 -6.62838  26.251
 3.82 5.20  0.132  0.136  0.143  0.159  0.184 14.01275 17.23913 -6.42833  29.702
 3.82 5.40  0.238  0.242  0.248  0.263  0.287 14.12163 17.43925 -6.22828  33.669
 3.82 5.60  0.348  0.351  0.357  0.370  0.393 14.23232 17.63940 -6.02820  38.245
 3.82 5.80  0.460  0.463  0.469  0.481  0.502 14.34536 17.83959 -5.82805  43.561
 3.82 6.00  0.576  0.578  0.583  0.595  0.614 14.46075 18.03981 -5.62783  49.749
 3.82 6.25  0.717  0.720  0.724  0.735  0.754 14.60911 18.29021 -5.37741  59.016
 3.82 6.50  0.863  0.865  0.869  0.880  0.899 14.76170 18.54083 -5.12674  70.350
 3.82 6.75  1.010  1.012  1.017  1.028  1.046 14.91919 18.79207 -4.87549  84.336
 3.82 7.00  1.159  1.162  1.166  1.177  1.195 15.07954 19.04415 -4.62342 101.436
 3.82 7.25  1.307  1.309  1.314  1.325  1.343 15.24279 19.29782 -4.36974 122.414
 3.82 7.50  1.451  1.453  1.458  1.469  1.486 15.40603 19.55364 -4.11390 147.730
 3.82 7.75  1.584  1.586  1.591  1.601  1.619 15.56750 19.81372 -3.85384 177.910
 3.82 8.00  1.705  1.707  1.711  1.721  1.739 15.72779 20.07737 -3.59024 213.957
 3.85-2.00 -0.520 -0.518 -0.514 -0.506 -0.493  9.68458  9.73151-13.93629   0.197
 3.85-1.50 -0.515 -0.513 -0.509 -0.500 -0.485 10.17696 10.23805-13.42946   0.347
 3.85-1.00 -0.518 -0.516 -0.512 -0.502 -0.488 10.65543 10.75610-12.91151   0.601
 3.85-0.50 -0.543 -0.541 -0.537 -0.528 -0.515 11.10209 11.29403-12.37346   1.006
 3.85 0.00 -0.599 -0.598 -0.594 -0.586 -0.573 11.49872 11.84948-11.81816   1.588
 3.85 0.50 -0.669 -0.667 -0.662 -0.654 -0.641 11.84373 12.40398-11.26368   2.362
 3.85 1.00 -0.718 -0.716 -0.711 -0.702 -0.687 12.15045 12.94488-10.72262   3.362
 3.85 1.25 -0.728 -0.725 -0.720 -0.710 -0.695 12.29397 13.20967-10.45790   3.966
 3.85 1.50 -0.725 -0.722 -0.717 -0.706 -0.690 12.43313 13.47144-10.19620   4.656
 3.85 1.75 -0.709 -0.706 -0.700 -0.689 -0.671 12.56884 13.73051 -9.93711   5.444
 3.85 2.00 -0.679 -0.676 -0.670 -0.658 -0.640 12.70209 13.98753 -9.68006   6.346
 3.85 2.25 -0.638 -0.634 -0.628 -0.616 -0.597 12.83338 14.24287 -9.42477   7.381
 3.85 2.50 -0.585 -0.581 -0.575 -0.562 -0.542 12.96332 14.49693 -9.17070   8.572
 3.85 2.75 -0.521 -0.518 -0.511 -0.498 -0.478 13.09219 14.74988 -8.91753   9.943
 3.85 3.00 -0.450 -0.446 -0.440 -0.426 -0.405 13.22037 15.00217 -8.66514  11.525
 3.85 3.20 -0.388 -0.384 -0.377 -0.363 -0.342 13.32250 15.20366 -8.46379  12.963
 3.85 3.40 -0.321 -0.317 -0.310 -0.296 -0.275 13.42447 15.40490 -8.26269  14.577
 3.85 3.60 -0.251 -0.247 -0.240 -0.225 -0.203 13.52623 15.60590 -8.06177  16.389
 3.85 3.80 -0.178 -0.174 -0.167 -0.152 -0.129 13.62794 15.80671 -7.86098  18.426
 3.85 4.00 -0.103 -0.099 -0.091 -0.075 -0.052 13.72965 16.00732 -7.66035  20.715
 3.85 4.20 -0.024 -0.020 -0.012  0.003  0.026 13.83147 16.20770 -7.45995  23.291
 3.85 4.40  0.056  0.060  0.068  0.084  0.108 13.93342 16.40800 -7.25961  26.190
 3.85 4.60  0.140  0.143  0.151  0.168  0.192 14.03553 16.60822 -7.05930  29.457
 3.85 4.80  0.226  0.230  0.238  0.254  0.278 14.13799 16.80841 -6.85901  33.147
 3.85 5.00  0.315  0.318  0.326  0.342  0.366 14.24080 17.00860 -6.65876  37.315
 3.85 5.20  0.407  0.411  0.418  0.433  0.457 14.34426 17.20879 -6.45866  42.034
 3.85 5.40  0.503  0.506  0.512  0.527  0.550 14.44843 17.40898 -6.25857  47.388
 3.85 5.60  0.601  0.604  0.610  0.623  0.646 14.55339 17.60915 -6.05846  53.473
 3.85 5.80  0.702  0.704  0.710  0.722  0.744 14.65942 17.80930 -5.85833  60.415
 3.85 6.00  0.805  0.807  0.812  0.824  0.844 14.76656 18.00945 -5.65817  68.347
 3.85 6.25  0.932  0.934  0.938  0.950  0.969 14.90254 18.25969 -5.40792  79.933
 3.85 6.50  1.061  1.063  1.068  1.079  1.098 15.04100 18.51001 -5.15758  93.750
 3.85 6.75  1.192  1.194  1.198  1.209  1.228 15.18259 18.76060 -4.90698 110.341
 3.85 7.00  1.325  1.327  1.331  1.342  1.361 15.32695 19.01157 -4.65600 130.284
 3.85 7.25  1.460  1.462  1.466  1.477  1.496 15.47445 19.26340 -4.40416 154.407
 3.85 7.50  1.595  1.597  1.602  1.612  1.631 15.62356 19.51640 -4.15113 183.330
 3.85 7.75  1.726  1.728  1.732  1.743  1.761 15.77358 19.77203 -3.89556 217.893
 3.85 8.00  1.851  1.853  1.857  1.867  1.885 15.92474 20.02979 -3.63789 259.306
 3.88-2.00 -0.521 -0.519 -0.515 -0.507 -0.495  9.65753  9.69880-13.96900   0.184
 3.88-1.50 -0.505 -0.503 -0.499 -0.489 -0.474 10.15594 10.20003-13.46750   0.327
 3.88-1.00 -0.480 -0.478 -0.473 -0.462 -0.445 10.65138 10.70424-12.96337   0.578
 3.88-0.50 -0.441 -0.438 -0.433 -0.423 -0.406 11.13767 11.21590-12.45161   1.012
 3.88 0.00 -0.393 -0.391 -0.387 -0.377 -0.363 11.60097 11.74445-11.92300   1.725
 3.88 0.50 -0.353 -0.351 -0.347 -0.339 -0.325 12.02119 12.29381-11.37387   2.799
 3.88 1.00 -0.324 -0.322 -0.318 -0.309 -0.296 12.38828 12.85095-10.81673   4.271
 3.88 1.25 -0.309 -0.307 -0.302 -0.294 -0.280 12.55364 13.12617-10.54144   5.167
 3.88 1.50 -0.290 -0.288 -0.283 -0.274 -0.260 12.71003 13.39846-10.26906   6.187
 3.88 1.75 -0.266 -0.264 -0.259 -0.249 -0.235 12.85890 13.66650-10.00100   7.342
 3.88 2.00 -0.236 -0.233 -0.228 -0.219 -0.203 13.00217 13.93115 -9.73636   8.658
 3.88 2.25 -0.199 -0.197 -0.192 -0.181 -0.165 13.14081 14.19247 -9.47507  10.157
 3.88 2.50 -0.156 -0.153 -0.148 -0.137 -0.121 13.27623 14.45133 -9.21624  11.871
 3.88 2.75 -0.105 -0.102 -0.097 -0.086 -0.069 13.40917 14.70813 -8.95944  13.835
 3.88 3.00 -0.048 -0.045 -0.039 -0.028 -0.010 13.54033 14.96336 -8.70421  16.090
 3.88 3.20  0.002  0.005  0.011  0.023  0.041 13.64423 15.16657 -8.50103  18.135
 3.88 3.40  0.056  0.059  0.066  0.078  0.096 13.74751 15.36918 -8.29844  20.425
 3.88 3.60  0.115  0.118  0.124  0.137  0.156 13.85019 15.57124 -8.09638  22.989
 3.88 3.80  0.176  0.180  0.186  0.199  0.219 13.95253 15.77291 -7.89469  25.865
 3.88 4.00  0.241  0.245  0.251  0.265  0.285 14.05461 15.97424 -7.69336  29.092
 3.88 4.20  0.309  0.313  0.320  0.333  0.354 14.15645 16.17523 -7.49236  32.710
 3.88 4.40  0.380  0.383  0.390  0.405  0.426 14.25829 16.37605 -7.29153  36.779
 3.88 4.60  0.454  0.457  0.464  0.478  0.500 14.36013 16.57673 -7.09083  41.353
 3.88 4.80  0.530  0.534  0.541  0.555  0.577 14.46198 16.77731 -6.89022  46.497
 3.88 5.00  0.609  0.613  0.619  0.634  0.656 14.56384 16.97777 -6.68973  52.282
 3.88 5.20  0.692  0.695  0.702  0.716  0.738 14.66595 17.17806 -6.48949  58.804
 3.88 5.40  0.777  0.780  0.786  0.800  0.822 14.76833 17.37831 -6.28927  66.158
 3.88 5.60  0.865  0.868  0.874  0.887  0.908 14.87105 17.57854 -6.08906  74.460
 3.88 5.80  0.956  0.958  0.964  0.976  0.997 14.97432 17.77875 -5.88886  83.854
 3.88 6.00  1.050  1.052  1.057  1.068  1.088 15.07809 17.97896 -5.68867  94.489
 3.88 6.25  1.165  1.167  1.172  1.183  1.202 15.20867 18.22919 -5.43845 109.826
 3.88 6.50  1.284  1.286  1.291  1.301  1.320 15.34044 18.47943 -5.18822 127.836
 3.88 6.75  1.402  1.404  1.409  1.420  1.438 15.47393 18.72975 -4.93789 149.075
 3.88 7.00  1.524  1.526  1.530  1.541  1.560 15.60906 18.98019 -4.68740 174.166
 3.88 7.25  1.647  1.649  1.654  1.664  1.683 15.74617 19.23099 -4.43659 203.938
 3.88 7.50  1.773  1.775  1.779  1.790  1.808 15.88463 19.48230 -4.18529 239.179
 3.88 7.75  1.897  1.899  1.904  1.914  1.932 16.02408 19.73490 -3.93267 280.847
 3.88 8.00  2.020  2.022  2.026  2.036  2.054 16.16465 19.98851 -3.67902 330.212
 3.91-2.00 -0.527 -0.525 -0.522 -0.516 -0.505  9.62808  9.66829-13.99913   0.172
 3.91-1.50 -0.512 -0.510 -0.506 -0.497 -0.483 10.12775 10.16850-13.49908   0.306
 3.91-1.00 -0.484 -0.482 -0.477 -0.466 -0.448 10.62675 10.66950-12.99827   0.543
 3.91-0.50 -0.432 -0.429 -0.423 -0.411 -0.392 11.12353 11.17231-12.49539   0.962
 3.91 0.00 -0.341 -0.339 -0.333 -0.321 -0.303 11.61426 11.68052-11.98716   1.693
 3.91 0.50 -0.212 -0.210 -0.205 -0.194 -0.178 12.08778 12.20194-11.46572   2.920
 3.91 1.00 -0.065 -0.063 -0.059 -0.049 -0.035 12.52556 12.74437-10.92336   4.833
 3.91 1.25  0.002  0.004  0.008  0.017  0.031 12.72483 13.02270-10.64495   6.079
 3.91 1.50  0.065  0.067  0.071  0.079  0.093 12.91143 13.30103-10.36653   7.536
 3.91 1.75  0.119  0.121  0.126  0.134  0.148 13.08474 13.57804-10.08950   9.200
 3.91 2.00  0.170  0.172  0.176  0.185  0.199 13.24773 13.85339 -9.81418  11.098
 3.91 2.25  0.217  0.219  0.223  0.232  0.246 13.40152 14.12401 -9.54356  13.248
 3.91 2.50  0.263  0.265  0.270  0.279  0.293 13.54863 14.39111 -9.27646  15.694
 3.91 2.75  0.310  0.312  0.317  0.326  0.341 13.69036 14.65465 -9.01295  18.475
 3.91 3.00  0.360  0.362  0.367  0.377  0.392 13.82815 14.91535 -8.75227  21.652
 3.91 3.20  0.402  0.404  0.409  0.419  0.435 13.93597 15.12199 -8.54562  24.516
 3.91 3.40  0.447  0.449  0.454  0.465  0.481 14.04244 15.32746 -8.34014  27.715
 3.91 3.60  0.494  0.497  0.502  0.513  0.529 14.14769 15.53182 -8.13578  31.284
 3.91 3.80  0.545  0.547  0.553  0.564  0.581 14.25215 15.73541 -7.93218  35.278
 3.91 4.00  0.598  0.601  0.606  0.618  0.636 14.35583 15.93827 -7.72932  39.747
 3.91 4.20  0.655  0.658  0.663  0.675  0.694 14.45880 16.14052 -7.52710  44.750
 3.91 4.40  0.715  0.717  0.723  0.735  0.754 14.56141 16.34235 -7.32529  50.362
 3.91 4.60  0.777  0.780  0.786  0.799  0.818 14.66364 16.54379 -7.12384  56.654
 3.91 4.80  0.843  0.846  0.852  0.864  0.884 14.76571 16.74496 -6.92265  63.720
 3.91 5.00  0.911  0.914  0.920  0.933  0.953 14.86770 16.94586 -6.72170  71.661
 3.91 5.20  0.983  0.986  0.992  1.004  1.025 14.96964 17.14652 -6.52101  80.585
 3.91 5.40  1.058  1.060  1.066  1.078  1.099 15.07158 17.34708 -6.32043  90.619
 3.91 5.60  1.135  1.138  1.143  1.155  1.176 15.17361 17.54755 -6.11995 101.913
 3.91 5.80  1.217  1.219  1.224  1.235  1.255 15.27590 17.74797 -5.91953 114.646
 3.91 6.00  1.300  1.303  1.307  1.318  1.337 15.37840 17.94831 -5.71919 128.998
 3.91 6.25  1.406  1.408  1.412  1.423  1.441 15.50695 18.19859 -5.46897 149.577
 3.91 6.50  1.515  1.517  1.521  1.531  1.549 15.63609 18.44886 -5.21875 173.561
 3.91 6.75  1.624  1.625  1.630  1.640  1.658 15.76611 18.69913 -4.96852 201.593
 3.91 7.00  1.735  1.737  1.741  1.751  1.769 15.89702 18.94939 -4.71829 234.392
 3.91 7.25  1.850  1.852  1.856  1.866  1.884 16.02908 19.19975 -4.46792 272.873
 3.91 7.50  1.967  1.969  1.973  1.983  2.000 16.16197 19.45025 -4.21738 317.979
 3.91 7.75  2.086  2.087  2.091  2.101  2.118 16.29550 19.70120 -3.96642 370.835
 3.91 8.00  2.205  2.207  2.211  2.220  2.237 16.42975 19.95250 -3.71512 432.846
 3.94-2.00 -0.531 -0.530 -0.527 -0.522 -0.514  9.59846  9.63789-14.02965   0.161
 3.94-1.50 -0.520 -0.519 -0.516 -0.508 -0.497 10.09830 10.13799-13.52944   0.285
 3.94-1.00 -0.498 -0.496 -0.492 -0.482 -0.466 10.59791 10.63839-13.02919   0.507
 3.94-0.50 -0.451 -0.448 -0.443 -0.430 -0.411 11.09726 11.13893-12.52856   0.902
 3.94 0.00 -0.358 -0.355 -0.349 -0.335 -0.314 11.59484 11.64118-12.02646   1.599
 3.94 0.50 -0.203 -0.200 -0.194 -0.181 -0.161 12.08778 12.14737-11.52028   2.821
 3.94 1.00  0.015  0.018  0.024  0.035  0.053 12.56785 12.66408-11.00353   4.902
 3.94 1.25  0.140  0.142  0.147  0.158  0.174 12.79733 12.92982-10.73776   6.384
 3.94 1.50  0.264  0.266  0.270  0.280  0.296 13.01745 13.20030-10.46725   8.226
 3.94 1.75  0.377  0.379  0.383  0.393  0.408 13.22424 13.47752-10.19000  10.437
 3.94 2.00  0.476  0.478  0.483  0.492  0.506 13.41847 13.75496 -9.91257  13.052
 3.94 2.25  0.559  0.561  0.566  0.574  0.589 13.59855 14.03251 -9.63506  16.058
 3.94 2.50  0.631  0.633  0.637  0.645  0.660 13.76738 14.31006 -9.35754  19.503
 3.94 2.75  0.691  0.693  0.697  0.706  0.720 13.92580 14.58280 -9.08486  23.407
 3.94 3.00  0.747  0.749  0.753  0.762  0.776 14.07664 14.85211 -8.81559  27.848
 3.94 3.20  0.789  0.791  0.795  0.804  0.819 14.19271 15.06462 -8.60306  31.827
 3.94 3.40  0.830  0.832  0.837  0.846  0.861 14.30587 15.27515 -8.39249  36.254
 3.94 3.60  0.872  0.874  0.879  0.888  0.903 14.41621 15.48371 -8.18388  41.164
 3.94 3.80  0.915  0.917  0.922  0.932  0.947 14.52470 15.69078 -7.97680  46.642
 3.94 4.00  0.960  0.962  0.967  0.977  0.993 14.63155 15.89647 -7.77109  52.748
 3.94 4.20  1.006  1.009  1.014  1.024  1.040 14.73710 16.10097 -7.56658  59.563
 3.94 4.40  1.056  1.058  1.063  1.073  1.090 14.84180 16.30466 -7.36291  67.191
 3.94 4.60  1.107  1.110  1.115  1.126  1.143 14.94568 16.50760 -7.16001  75.723
 3.94 4.80  1.162  1.164  1.170  1.181  1.198 15.04907 16.71003 -6.95763  85.288
 3.94 5.00  1.220  1.222  1.227  1.238  1.256 15.15198 16.91196 -6.75572  96.014
 3.94 5.20  1.280  1.283  1.288  1.299  1.317 15.25441 17.11344 -6.55420 108.040
 3.94 5.40  1.344  1.346  1.351  1.362  1.381 15.35676 17.31464 -6.35295 121.557
 3.94 5.60  1.411  1.413  1.418  1.429  1.448 15.45902 17.51561 -6.15197 136.749
 3.94 5.80  1.482  1.484  1.489  1.499  1.517 15.56127 17.71641 -5.95118 153.834
 3.94 6.00  1.556  1.558  1.562  1.572  1.589 15.66351 17.91703 -5.75056 173.055
 3.94 6.25  1.650  1.652  1.656  1.666  1.683 15.79156 18.16754 -5.50001 200.543
 3.94 6.50  1.749  1.751  1.755  1.764  1.780 15.91986 18.41797 -5.24957 232.463
 3.94 6.75  1.848  1.849  1.853  1.862  1.879 16.04873 18.66837 -4.99918 269.622
 3.94 7.00  1.950  1.952  1.956  1.965  1.981 16.17811 18.91871 -4.74885 312.903
 3.94 7.25  2.056  2.058  2.062  2.071  2.087 16.30807 19.16892 -4.49863 363.408
 3.94 7.50  2.166  2.167  2.171  2.180  2.196 16.43854 19.41913 -4.24841 422.322
 3.94 7.75  2.278  2.280  2.283  2.292  2.308 16.56947 19.66948 -3.99807 491.043
 3.94 8.00  2.393  2.395  2.398  2.407  2.422 16.70088 19.91991 -3.74763 571.259
 3.97-2.00 -0.529 -0.528 -0.526 -0.522 -0.516  9.57019  9.60627-14.06128   0.150
 3.97-1.50 -0.525 -0.524 -0.521 -0.515 -0.506 10.06893 10.10755-13.56019   0.267
 3.97-1.00 -0.510 -0.508 -0.504 -0.496 -0.483 10.56820 10.60810-13.05948   0.474
 3.97-0.50 -0.474 -0.472 -0.467 -0.456 -0.438 11.06781 11.10857-12.55909   0.842
 3.97 0.00 -0.395 -0.392 -0.386 -0.372 -0.350 11.56714 11.60906-12.05849   1.496
 3.97 0.50 -0.247 -0.244 -0.237 -0.222 -0.198 12.06521 12.11093-11.55674   2.655
 3.97 1.00 -0.015 -0.011 -0.004  0.009  0.032 12.55955 12.61585-11.05173   4.690
 3.97 1.25  0.131  0.134  0.141  0.154  0.176 12.80318 12.87127-10.79624   6.209
 3.97 1.50  0.293  0.296  0.302  0.315  0.335 13.04297 13.12969-10.53775   8.183
 3.97 1.75  0.458  0.461  0.466  0.478  0.497 13.27593 13.39334-10.27418  10.700
 3.97 2.00  0.618  0.621  0.626  0.637  0.655 13.50065 13.66172-10.00590  13.859
 3.97 2.25  0.761  0.763  0.768  0.778  0.795 13.71268 13.93670 -9.73098  17.691
 3.97 2.50  0.884  0.886  0.891  0.901  0.917 13.91244 14.21352 -9.45420  22.265
 3.97 2.75  0.985  0.987  0.991  1.001  1.016 14.09780 14.49167 -9.17605  27.561
 3.97 3.00  1.068  1.070  1.075  1.084  1.099 14.27138 14.76982 -8.89791  33.658
 3.97 3.20  1.124  1.126  1.131  1.140  1.154 14.40196 14.98940 -8.67834  39.118
 3.97 3.40  1.175  1.177  1.181  1.190  1.205 14.52720 15.20693 -8.46081  45.185
 3.97 3.60  1.221  1.223  1.227  1.236  1.251 14.64725 15.42200 -8.24569  51.882
 3.97 3.80  1.264  1.266  1.270  1.279  1.294 14.76367 15.63460 -8.03302  59.325
 3.97 4.00  1.306  1.308  1.312  1.321  1.336 14.87685 15.84510 -7.82246  67.582
 3.97 4.20  1.348  1.350  1.354  1.363  1.379 14.98741 16.05360 -7.61398  76.756
 3.97 4.40  1.391  1.392  1.397  1.406  1.422 15.09615 16.26064 -7.40696  86.993
 3.97 4.60  1.435  1.437  1.441  1.450  1.466 15.20315 16.46629 -7.20131  98.397
 3.97 4.80  1.481  1.482  1.487  1.497  1.513 15.30905 16.67094 -6.99664 111.156
 3.97 5.00  1.529  1.531  1.535  1.545  1.561 15.41397 16.87466 -6.79290 125.426
 3.97 5.20  1.580  1.582  1.586  1.596  1.612 15.51808 17.07757 -6.59001 141.399
 3.97 5.40  1.633  1.635  1.640  1.649  1.666 15.62174 17.27995 -6.38765 159.321
 3.97 5.60  1.690  1.692  1.696  1.706  1.722 15.72490 17.48183 -6.18580 179.419
 3.97 5.80  1.751  1.752  1.756  1.765  1.782 15.82787 17.68339 -5.98427 202.003
 3.97 6.00  1.814  1.816  1.819  1.828  1.844 15.93075 17.88462 -5.78304 227.399
 3.97 6.25  1.897  1.898  1.902  1.910  1.926 16.05927 18.13579 -5.53185 263.645
 3.97 6.50  1.984  1.986  1.989  1.997  2.012 16.18780 18.38668 -5.28092 305.668
 3.97 6.75  2.072  2.074  2.077  2.085  2.100 16.31652 18.63734 -5.03018 354.504
 3.97 7.00  2.165  2.166  2.170  2.178  2.193 16.44545 18.88784 -4.77963 411.272
 3.97 7.25  2.262  2.264  2.267  2.275  2.290 16.57490 19.13816 -4.52936 477.377
 3.97 7.50  2.364  2.365  2.368  2.376  2.391 16.70475 19.38846 -4.27910 554.356
 3.97 7.75  2.469  2.470  2.473  2.481  2.495 16.83499 19.63875 -4.02884 644.040
 3.97 8.00  2.577  2.579  2.582  2.589  2.602 16.96563 19.88902 -3.77859 748.571
 4.00-2.00 -0.513 -0.512 -0.510 -0.507 -0.501  9.54949  9.56808-14.09947   0.142
 4.00-1.50 -0.518 -0.517 -0.515 -0.510 -0.502 10.04376 10.07335-13.59414   0.250
 4.00-1.00 -0.513 -0.512 -0.509 -0.502 -0.491 10.54033 10.57669-13.09087   0.443
 4.00-0.50 -0.490 -0.488 -0.484 -0.475 -0.460 11.03862 11.07809-12.58956   0.787
 4.00 0.00 -0.431 -0.429 -0.423 -0.411 -0.391 11.53807 11.57887-12.08879   1.398
 4.00 0.50 -0.306 -0.303 -0.296 -0.281 -0.257 12.03743 12.07954-11.58821   2.483
 4.00 1.00 -0.088 -0.085 -0.077 -0.061 -0.034 12.53555 12.58104-11.08656   4.408
 4.00 1.25  0.056  0.060  0.067  0.084  0.110 12.78365 12.83265-10.83488   5.865
 4.00 1.50  0.225  0.229  0.236  0.253  0.278 13.03060 13.08529-10.58220   7.793
 4.00 1.75  0.410  0.413  0.421  0.436  0.460 13.27506 13.34017-10.32734  10.326
 4.00 2.00  0.604  0.608  0.614  0.629  0.652 13.51614 13.59781-10.06976  13.631
 4.00 2.25  0.795  0.798  0.804  0.818  0.839 13.75099 13.85999 -9.80757  17.862
 4.00 2.50  0.976  0.978  0.984  0.996  1.016 13.97823 14.12678 -9.54076  23.202
 4.00 2.75  1.135  1.137  1.142  1.154  1.172 14.19353 14.40037 -9.26718  29.729
 4.00 3.00  1.271  1.273  1.278  1.288  1.306 14.39690 14.67660 -8.99097  37.573
 4.00 3.20  1.361  1.363  1.367  1.377  1.394 14.54891 14.89936 -8.76825  44.760
 4.00 3.40  1.438  1.440  1.444  1.454  1.470 14.69320 15.12212 -8.54552  52.849
 4.00 3.60  1.503  1.505  1.509  1.518  1.534 14.82956 15.34384 -8.32385  61.831
 4.00 3.80  1.559  1.561  1.565  1.574  1.589 14.95954 15.56307 -8.10467  71.809
 4.00 4.00  1.609  1.611  1.615  1.624  1.639 15.08386 15.78039 -7.88739  82.858
 4.00 4.20  1.654  1.656  1.660  1.669  1.684 15.20325 15.99479 -7.67295  95.070
 4.00 4.40  1.697  1.699  1.703  1.712  1.726 15.31918 16.20706 -7.46063 108.648
 4.00 4.60  1.739  1.740  1.744  1.753  1.768 15.43183 16.41714 -7.25050 123.692
 4.00 4.80  1.780  1.782  1.785  1.794  1.809 15.54230 16.62547 -7.04214 140.465
 4.00 5.00  1.822  1.824  1.827  1.836  1.851 15.65079 16.83225 -6.83535 159.150
 4.00 5.20  1.866  1.867  1.871  1.880  1.894 15.75767 17.03769 -6.62991 179.993
 4.00 5.40  1.911  1.913  1.917  1.925  1.939 15.86350 17.24214 -6.42544 203.320
 4.00 5.60  1.960  1.961  1.965  1.973  1.987 15.96834 17.44566 -6.22192 229.402
 4.00 5.80  2.011  2.012  2.015  2.023  2.037 16.07260 17.64854 -6.01903 258.655
 4.00 6.00  2.065  2.066  2.069  2.077  2.090 16.17638 17.85083 -5.81673 291.476
 4.00 6.25  2.136  2.137  2.140  2.147  2.161 16.30557 18.10301 -5.56452 338.204
 4.00 6.50  2.212  2.213  2.216  2.223  2.236 16.43457 18.35468 -5.31283 392.353
 4.00 6.75  2.290  2.291  2.294  2.301  2.314 16.56344 18.60599 -5.06150 455.117
 4.00 7.00  2.373  2.375  2.377  2.384  2.397 16.69232 18.85697 -4.81051 527.921
 4.00 7.25  2.462  2.463  2.466  2.472  2.485 16.82153 19.10761 -4.55987 612.602
 4.00 7.50  2.555  2.556  2.559  2.566  2.578 16.95110 19.35813 -4.30936 711.153
 4.00 7.75  2.654  2.655  2.657  2.664  2.676 17.08135 19.60858 -4.05891 826.222
 4.00 8.00  2.756  2.758  2.760  2.766  2.778 17.21219 19.85896 -3.80855 960.552
 4.05-2.00 -0.492 -0.491 -0.489 -0.485 -0.478  9.50840  9.50934-14.15820   0.128
 4.05-1.50 -0.491 -0.490 -0.488 -0.483 -0.475 10.00732 10.01072-13.65699   0.226
 4.05-1.00 -0.490 -0.489 -0.486 -0.480 -0.471 10.50433 10.51348-13.15410   0.401
 4.05-0.50 -0.486 -0.484 -0.481 -0.474 -0.461 10.99904 11.01870-12.64917   0.709
 4.05 0.00 -0.463 -0.461 -0.456 -0.447 -0.430 11.49360 11.52375-12.14382   1.254
 4.05 0.50 -0.391 -0.388 -0.383 -0.370 -0.348 11.98998 12.02694-11.64054   2.220
 4.05 1.00 -0.233 -0.229 -0.222 -0.206 -0.179 12.48827 12.52853-11.13900   3.941
 4.05 1.25 -0.111 -0.108 -0.100 -0.082 -0.054 12.73763 12.77916-10.88845   5.251
 4.05 1.50  0.038  0.042  0.050  0.069  0.099 12.98700 13.02979-10.63789   6.997
 4.05 1.75  0.216  0.220  0.228  0.247  0.278 13.23601 13.28070-10.38699   9.320
 4.05 2.00  0.416  0.420  0.429  0.448  0.479 13.48458 13.53199-10.13567  12.409
 4.05 2.25  0.630  0.634  0.642  0.660  0.691 13.73203 13.78424 -9.88342  16.499
 4.05 2.50  0.850  0.854  0.862  0.880  0.909 13.97791 14.03783 -9.62986  21.897
 4.05 2.75  1.070  1.073  1.080  1.096  1.123 14.22062 14.29411 -9.37355  28.956
 4.05 3.00  1.283  1.286  1.292  1.307  1.331 14.45909 14.55364 -9.11396  38.105
 4.05 3.20  1.442  1.445  1.450  1.464  1.486 14.64447 14.76519 -8.90237  47.170
 4.05 3.40  1.589  1.592  1.597  1.609  1.630 14.82418 14.97974 -8.68779  58.011
 4.05 3.60  1.721  1.723  1.728  1.739  1.758 14.99697 15.19848 -8.46906  70.778
 4.05 3.80  1.835  1.837  1.842  1.852  1.869 15.16117 15.41962 -8.24794  85.504
 4.05 4.00  1.934  1.936  1.940  1.949  1.966 15.31744 15.64138 -8.02623 102.357
 4.05 4.20  2.016  2.018  2.022  2.030  2.046 15.46429 15.86352 -7.80412 121.212
 4.05 4.40  2.087  2.088  2.092  2.100  2.114 15.60390 16.08566 -7.58201 142.351
 4.05 4.60  2.147  2.149  2.152  2.160  2.173 15.73618 16.30639 -7.36133 165.770
 4.05 4.80  2.200  2.201  2.204  2.212  2.225 15.86282 16.52409 -7.14366 191.793
 4.05 5.00  2.248  2.250  2.252  2.260  2.272 15.98448 16.73965 -6.92812 220.633
 4.05 5.20  2.293  2.294  2.297  2.304  2.316 16.10191 16.95253 -6.71515 252.575
 4.05 5.40  2.336  2.337  2.340  2.346  2.358 16.21640 17.16342 -6.50419 288.163
 4.05 5.60  2.379  2.380  2.383  2.389  2.400 16.32806 17.37231 -6.29529 327.699
 4.05 5.80  2.423  2.424  2.426  2.432  2.443 16.43792 17.57967 -6.08799 371.881
 4.05 6.00  2.468  2.469  2.471  2.476  2.486 16.54617 17.78562 -5.88207 421.242
 4.05 6.25  2.526  2.527  2.529  2.534  2.544 16.67976 18.04136 -5.62621 491.265
 4.05 6.50  2.588  2.589  2.591  2.595  2.605 16.81218 18.29579 -5.37171 572.158
 4.05 6.75  2.652  2.653  2.655  2.660  2.669 16.94363 18.54923 -5.11838 665.633
 4.05 7.00  2.721  2.722  2.724  2.729  2.738 17.07482 18.80188 -4.86582 774.144
 4.05 7.25  2.796  2.797  2.799  2.803  2.812 17.20584 19.05386 -4.61382 900.158
 4.05 7.50  2.877  2.878  2.879  2.884  2.892 17.33686 19.30535 -4.362311046.682
 4.05 7.75  2.964  2.965  2.966  2.971  2.979 17.46837 19.55650 -4.111171217.823
 4.05 8.00  3.057  3.057  3.059  3.063  3.071 17.60021 19.80726 -3.860441417.538
 4.10-2.00 -0.482 -0.481 -0.479 -0.473 -0.463  9.45909  9.45879-14.20880   0.114
 4.10-1.50 -0.479 -0.478 -0.475 -0.469 -0.458  9.95890  9.95885-13.70863   0.202
 4.10-1.00 -0.475 -0.474 -0.471 -0.464 -0.452 10.45864 10.45924-13.20845   0.360
 4.10-0.50 -0.468 -0.467 -0.463 -0.455 -0.442 10.95804 10.95976-12.70774   0.639
 4.10 0.00 -0.451 -0.450 -0.446 -0.436 -0.421 11.45637 11.46150-12.20614   1.134
 4.10 0.50 -0.411 -0.409 -0.404 -0.392 -0.373 11.95255 11.96515-11.70246   2.008
 4.10 1.00 -0.317 -0.314 -0.308 -0.293 -0.269 12.44685 12.47071-11.19688   3.547
 4.10 1.25 -0.237 -0.234 -0.227 -0.211 -0.183 12.69417 12.72321-10.94434   4.715
 4.10 1.50 -0.130 -0.126 -0.119 -0.101 -0.071 12.94171 12.97543-10.69208   6.270
 4.10 1.75  0.008  0.012  0.020  0.039  0.071 13.19008 13.22700-10.44053   8.345
 4.10 2.00  0.176  0.180  0.188  0.208  0.241 13.43870 13.47828-10.18930  11.111
 4.10 2.25  0.371  0.375  0.384  0.404  0.437 13.68753 13.72930 -9.93835  14.797
 4.10 2.50  0.586  0.590  0.599  0.619  0.652 13.93636 13.98032 -9.68740  19.707
 4.10 2.75  0.815  0.819  0.827  0.846  0.878 14.18474 14.23180 -9.43588  26.230
 4.10 3.00  1.051  1.054  1.062  1.080  1.110 14.43249 14.48387 -9.18369  34.886
 4.10 3.20  1.238  1.241  1.248  1.265  1.293 14.62942 14.68657 -8.98101  43.764
 4.10 3.40  1.423  1.426  1.433  1.448  1.475 14.82479 14.89054 -8.77710  54.803
 4.10 3.60  1.604  1.606  1.612  1.626  1.650 15.01814 15.09624 -8.57145  68.468
 4.10 3.80  1.776  1.779  1.784  1.796  1.818 15.20777 15.30469 -8.36301  85.176
 4.10 4.00  1.939  1.941  1.946  1.957  1.976 15.39358 15.51574 -8.15193 105.497
 4.10 4.20  2.088  2.090  2.094  2.103  2.121 15.57276 15.73105 -7.93654 129.668
 4.10 4.40  2.221  2.223  2.227  2.235  2.250 15.74515 15.94892 -7.71862 158.130
 4.10 4.60  2.338  2.339  2.342  2.350  2.363 15.90957 16.17005 -7.49749 191.079
 4.10 4.80  2.438  2.439  2.441  2.448  2.460 16.06521 16.39252 -7.27505 228.576
 4.10 5.00  2.524  2.525  2.527  2.533  2.544 16.21299 16.61500 -7.05261 270.962
 4.10 5.20  2.595  2.596  2.599  2.604  2.614 16.35233 16.83627 -6.83138 318.107
 4.10 5.40  2.659  2.660  2.662  2.667  2.676 16.48542 17.05629 -6.61137 370.779
 4.10 5.60  2.715  2.716  2.718  2.722  2.731 16.61228 17.27427 -6.39336 429.093
 4.10 5.80  2.767  2.767  2.769  2.773  2.781 16.73465 17.48950 -6.17807 494.022
 4.10 6.00  2.816  2.816  2.818  2.822  2.829 16.85309 17.70252 -5.96497 566.198
 4.10 6.25  2.875  2.875  2.876  2.880  2.887 16.99676 17.96552 -5.70196 668.007
 4.10 6.50  2.934  2.934  2.935  2.939  2.946 17.13704 18.22583 -5.44165 785.067
 4.10 6.75  2.993  2.994  2.995  2.999  3.005 17.27461 18.48382 -5.18361 919.792
 4.10 7.00  3.056  3.057  3.058  3.061  3.068 17.41061 18.74005 -4.927381075.723
 4.10 7.25  3.123  3.124  3.125  3.128  3.134 17.54519 18.99482 -4.672751256.091
 4.10 7.50  3.195  3.196  3.197  3.200  3.206 17.67970 19.24846 -4.419191466.508
 4.10 7.75  3.273  3.273  3.274  3.277  3.283 17.81420 19.50129 -4.166351712.110
 4.10 8.00  3.356  3.357  3.358  3.361  3.366 17.94866 19.75320 -3.914351998.704
 4.15-2.00 -0.483 -0.482 -0.480 -0.475 -0.467  9.40909  9.40875-14.25877   0.101
 4.15-1.50 -0.474 -0.473 -0.470 -0.463 -0.452  9.90902  9.90875-13.75870   0.180
 4.15-1.00 -0.465 -0.463 -0.460 -0.451 -0.436 10.40909 10.40892-13.25877   0.321
 4.15-0.50 -0.456 -0.454 -0.450 -0.440 -0.422 10.90891 10.90886-12.75870   0.570
 4.15 0.00 -0.443 -0.441 -0.436 -0.425 -0.406 11.40875 11.40909-12.25853   1.013
 4.15 0.50 -0.416 -0.413 -0.408 -0.395 -0.374 11.90827 11.90950-11.75796   1.801
 4.15 1.00 -0.351 -0.348 -0.342 -0.327 -0.302 12.40705 12.41078-11.25688   3.199
 4.15 1.25 -0.294 -0.291 -0.285 -0.268 -0.241 12.65585 12.66193-11.00569   4.260
 4.15 1.50 -0.217 -0.214 -0.207 -0.190 -0.160 12.90417 12.91355-10.75399   5.669
 4.15 1.75 -0.116 -0.113 -0.105 -0.087 -0.055 13.15174 13.16612-10.50153   7.538
 4.15 2.00  0.007  0.011  0.019  0.038  0.071 13.39898 13.41880-10.24888  10.020
 4.15 2.25  0.159  0.163  0.171  0.191  0.225 13.64596 13.67154 -9.99608  13.316
 4.15 2.50  0.334  0.338  0.347  0.367  0.401 13.89293 13.92428 -9.74328  17.697
 4.15 2.75  0.536  0.539  0.548  0.567  0.601 14.14070 14.17639 -9.49117  23.538
 4.15 3.00  0.755  0.758  0.766  0.785  0.817 14.38863 14.42830 -9.23928  31.314
 4.15 3.20  0.942  0.945  0.953  0.971  1.001 14.58708 14.62968 -9.03792  39.352
 4.15 3.40  1.134  1.137  1.144  1.161  1.189 14.78552 14.83107 -8.83657  49.453
 4.15 3.60  1.329  1.332  1.339  1.354  1.380 14.98372 15.03269 -8.63497  62.129
 4.15 3.80  1.525  1.527  1.533  1.547  1.571 15.18110 15.23510 -8.43257  77.977
 4.15 4.00  1.716  1.719  1.724  1.737  1.759 15.37767 15.43823 -8.22944  97.774
 4.15 4.20  1.904  1.906  1.911  1.922  1.942 15.57211 15.64298 -8.02464 122.306
 4.15 4.40  2.086  2.088  2.092  2.101  2.119 15.76392 15.84968 -7.81788 152.537
 4.15 4.60  2.259  2.261  2.264  2.272  2.287 15.95236 16.05907 -7.60848 189.503
 4.15 4.80  2.421  2.422  2.425  2.432  2.445 16.13531 16.27186 -7.39573 233.940
 4.15 5.00  2.569  2.570  2.572  2.578  2.589 16.31281 16.48756 -7.18006 286.986
 4.15 5.20  2.699  2.700  2.702  2.707  2.716 16.48191 16.70772 -6.95976 348.656
 4.15 5.40  2.813  2.814  2.816  2.820  2.828 16.64337 16.92866 -6.73877 419.867
 4.15 5.60  2.911  2.912  2.913  2.917  2.924 16.79640 17.15034 -6.51711 500.742
 4.15 5.80  2.996  2.996  2.997  3.001  3.007 16.94147 17.37220 -6.29531 591.762
 4.15 6.00  3.070  3.071  3.072  3.074  3.080 17.07954 17.59406 -6.07350 693.718
 4.15 6.25  3.150  3.150  3.151  3.154  3.159 17.24295 17.86715 -5.80047 837.351
 4.15 6.50  3.223  3.223  3.224  3.226  3.231 17.39898 18.13704 -5.530621002.155
 4.15 6.75  3.290  3.291  3.291  3.294  3.298 17.54884 18.40299 -5.264641190.865
 4.15 7.00  3.357  3.357  3.358  3.360  3.365 17.69461 18.66586 -5.001741408.440
 4.15 7.25  3.425  3.425  3.426  3.428  3.432 17.83701 18.92595 -4.741721659.321
 4.15 7.50  3.495  3.495  3.496  3.498  3.502 17.97772 19.18384 -4.483861951.152
 4.15 7.75  3.569  3.569  3.570  3.571  3.575 18.11756 19.44006 -4.227582292.016
 4.15 8.00  3.647  3.648  3.648  3.650  3.653 18.25624 19.69443 -3.973062688.918
 4.20-2.00 -0.487 -0.487 -0.486 -0.483 -0.479  9.35908  9.35870-14.30883   0.090
 4.20-1.50 -0.481 -0.480 -0.479 -0.475 -0.469  9.85902  9.85878-13.80883   0.161
 4.20-1.00 -0.471 -0.470 -0.467 -0.462 -0.452 10.35908 10.35889-13.30883   0.286
 4.20-0.50 -0.456 -0.455 -0.451 -0.443 -0.428 10.85896 10.85878-12.80883   0.508
 4.20 0.00 -0.437 -0.435 -0.430 -0.419 -0.399 11.35889 11.35889-12.30874   0.903
 4.20 0.50 -0.411 -0.408 -0.402 -0.388 -0.363 11.85884 11.85896-11.80855   1.606
 4.20 1.00 -0.366 -0.363 -0.356 -0.340 -0.310 12.35870 12.35908-11.30848   2.856
 4.20 1.25 -0.329 -0.326 -0.318 -0.300 -0.269 12.60849 12.60926-11.05830   3.808
 4.20 1.50 -0.275 -0.272 -0.264 -0.245 -0.212 12.85818 12.85956-10.80799   5.076
 4.20 1.75 -0.201 -0.198 -0.189 -0.169 -0.134 13.10777 13.10997-10.55755   6.766
 4.20 2.00 -0.105 -0.101 -0.093 -0.072 -0.035 13.35717 13.36059-10.30689   9.016
 4.20 2.25  0.017  0.020  0.029  0.051  0.088 13.60607 13.61169-10.05586  12.008
 4.20 2.50  0.162  0.166  0.174  0.196  0.232 13.85449 13.86326 -9.80438  15.983
 4.20 2.75  0.332  0.336  0.344  0.365  0.401 14.10221 14.11561 -9.55205  21.257
 4.20 3.00  0.520  0.523  0.531  0.551  0.584 14.34947 14.36829 -9.29938  28.257
 4.20 3.20  0.685  0.688  0.696  0.714  0.746 14.54688 14.57067 -9.09701  35.468
 4.20 3.40  0.859  0.862  0.869  0.886  0.915 14.74428 14.77306 -8.89463  44.519
 4.20 3.60  1.041  1.044  1.050  1.066  1.093 14.94184 14.97530 -8.69238  55.890
 4.20 3.80  1.231  1.234  1.240  1.254  1.279 15.13955 15.17739 -8.49024  70.179
 4.20 4.00  1.426  1.428  1.433  1.446  1.468 15.33726 15.37949 -8.28811  88.121
 4.20 4.20  1.625  1.627  1.631  1.643  1.663 15.53481 15.58171 -8.08588 110.624
 4.20 4.40  1.824  1.826  1.830  1.840  1.858 15.73210 15.78413 -7.88350 138.827
 4.20 4.60  2.022  2.023  2.027  2.036  2.052 15.92870 15.98715 -7.68051 174.080
 4.20 4.80  2.216  2.217  2.220  2.228  2.242 16.12344 16.19166 -7.47595 217.832
 4.20 5.00  2.405  2.406  2.408  2.415  2.427 16.31639 16.39759 -7.26994 272.021
 4.20 5.20  2.586  2.587  2.589  2.594  2.604 16.50555 16.60645 -7.06112 338.212
 4.20 5.40  2.757  2.757  2.759  2.764  2.772 16.69031 16.81804 -6.84958 418.390
 4.20 5.60  2.913  2.914  2.915  2.919  2.926 16.86958 17.03327 -6.63436 514.326
 4.20 5.80  3.054  3.054  3.055  3.058  3.064 17.04143 17.25150 -6.41609 626.876
 4.20 6.00  3.179  3.180  3.180  3.183  3.187 17.20629 17.47159 -6.19600 757.925
 4.20 6.25  3.310  3.310  3.311  3.313  3.317 17.40001 17.74906 -5.91856 947.274
 4.20 6.50  3.423  3.423  3.424  3.425  3.429 17.58252 18.02653 -5.641111168.706
 4.20 6.75  3.518  3.518  3.518  3.520  3.523 17.75398 18.30122 -5.366431423.708
 4.20 7.00  3.604  3.604  3.605  3.606  3.609 17.91735 18.57334 -5.094311718.265
 4.20 7.25  3.683  3.684  3.684  3.685  3.688 18.07366 18.84136 -4.826292057.017
 4.20 7.50  3.761  3.761  3.762  3.763  3.765 18.22557 19.10619 -4.561462450.132
 4.20 7.75  3.839  3.839  3.839  3.840  3.843 18.37474 19.36820 -4.299432909.233
 4.20 8.00  3.919  3.919  3.919  3.920  3.922 18.52061 19.62726 -4.040343441.335
 4.25-2.00 -0.483 -0.483 -0.482 -0.480 -0.476  9.30920  9.30878-14.35882   0.081
 4.25-1.50 -0.480 -0.480 -0.479 -0.476 -0.471  9.80902  9.80875-13.85886   0.143
 4.25-1.00 -0.475 -0.474 -0.473 -0.469 -0.463 10.30899 10.30878-13.35882   0.255
 4.25-0.50 -0.465 -0.464 -0.462 -0.457 -0.448 10.80895 10.80875-12.85886   0.453
 4.25 0.00 -0.447 -0.446 -0.443 -0.436 -0.424 11.30899 11.30878-12.35872   0.805
 4.25 0.50 -0.421 -0.419 -0.415 -0.404 -0.386 11.80889 11.80889-11.85886   1.432
 4.25 1.00 -0.379 -0.376 -0.370 -0.355 -0.329 12.30878 12.30899-11.35863   2.546
 4.25 1.25 -0.348 -0.345 -0.338 -0.321 -0.291 12.55873 12.55901-11.10859   3.395
 4.25 1.50 -0.306 -0.302 -0.295 -0.275 -0.240 12.80868 12.80902-10.85855   4.527
 4.25 1.75 -0.251 -0.248 -0.239 -0.217 -0.179 13.05863 13.05922-10.60839   6.036
 4.25 2.00 -0.178 -0.174 -0.165 -0.141 -0.100 13.30857 13.30942-10.35823   8.047
 4.25 2.25 -0.086 -0.082 -0.073 -0.048 -0.005 13.55831 13.55962-10.10808  10.728
 4.25 2.50  0.027  0.031  0.041  0.065  0.109 13.80794 13.80983 -9.85792  14.302
 4.25 2.75  0.166  0.170  0.180  0.204  0.246 14.05749 14.06034 -9.60738  19.062
 4.25 3.00  0.329  0.333  0.342  0.364  0.404 14.30685 14.31112 -9.35655  25.399
 4.25 3.20  0.479  0.483  0.491  0.512  0.549 14.50592 14.51198 -9.15569  31.941
 4.25 3.40  0.640  0.644  0.651  0.670  0.703 14.70464 14.71315 -8.95455  40.153
 4.25 3.60  0.812  0.815  0.822  0.839  0.869 14.90295 14.91481 -8.75290  50.451
 4.25 3.80  0.991  0.994  1.000  1.015  1.042 15.10085 15.11693 -8.55075  63.360
 4.25 4.00  1.174  1.177  1.182  1.195  1.218 15.29842 15.31932 -8.34833  79.541
 4.25 4.20  1.365  1.367  1.372  1.383  1.404 15.49560 15.52187 -8.14574  99.815
 4.25 4.40  1.558  1.560  1.564  1.574  1.592 15.69265 15.72455 -7.94303 125.235
 4.25 4.60  1.755  1.757  1.760  1.769  1.785 15.88964 15.92731 -7.74027 157.117
 4.25 4.80  1.957  1.958  1.961  1.969  1.983 16.08655 16.13019 -7.53742 197.092
 4.25 5.00  2.158  2.159  2.162  2.168  2.180 16.28330 16.33325 -7.33442 247.189
 4.25 5.20  2.362  2.363  2.365  2.370  2.380 16.47902 16.53700 -7.13070 309.669
 4.25 5.40  2.560  2.561  2.562  2.567  2.575 16.67345 16.74171 -6.92602 387.380
 4.25 5.60  2.753  2.754  2.755  2.759  2.766 16.86605 16.94796 -6.71978 483.556
 4.25 5.80  2.940  2.940  2.941  2.944  2.950 17.05509 17.15683 -6.51087 601.101
 4.25 6.00  3.116  3.116  3.117  3.119  3.124 17.24055 17.36810 -6.29956 744.123
 4.25 6.25  3.314  3.314  3.315  3.317  3.320 17.46334 17.63748 -6.03012 961.735
 4.25 6.50  3.491  3.491  3.491  3.493  3.495 17.67624 17.91036 -5.757211228.948
 4.25 6.75  3.638  3.638  3.639  3.640  3.642 17.87655 18.18713 -5.480491547.624
 4.25 7.00  3.767  3.767  3.768  3.769  3.771 18.06595 18.46389 -5.203771924.627
 4.25 7.25  3.876  3.876  3.877  3.878  3.879 18.24407 18.73889 -4.928682362.846
 4.25 7.50  3.977  3.977  3.977  3.978  3.979 18.41414 19.01199 -4.655412874.044
 4.25 7.75  4.068  4.069  4.069  4.069  4.071 18.57836 19.28138 -4.386083472.231
 4.25 8.00  4.159  4.159  4.159  4.159  4.161 18.73600 19.54765 -4.119994163.110
 4.30-2.00 -0.474 -0.474 -0.473 -0.470 -0.465  9.26031  9.25744-14.41016   0.072
 4.30-1.50 -0.472 -0.472 -0.471 -0.468 -0.462  9.75944  9.75831-13.90939   0.128
 4.30-1.00 -0.469 -0.468 -0.467 -0.463 -0.457 10.25912 10.25864-13.40894   0.227
 4.30-0.50 -0.463 -0.462 -0.460 -0.456 -0.448 10.75906 10.75869-12.90904   0.404
 4.30 0.00 -0.451 -0.450 -0.448 -0.443 -0.433 11.25912 11.25888-12.40882   0.718
 4.30 0.50 -0.430 -0.429 -0.426 -0.420 -0.407 11.75891 11.75884-11.90869   1.276
 4.30 1.00 -0.397 -0.395 -0.392 -0.382 -0.366 12.25888 12.25888-11.40871   2.269
 4.30 1.25 -0.373 -0.371 -0.366 -0.355 -0.335 12.50882 12.50893-11.15871   3.026
 4.30 1.50 -0.340 -0.338 -0.333 -0.319 -0.295 12.75876 12.75899-10.90869   4.035
 4.30 1.75 -0.297 -0.294 -0.288 -0.271 -0.243 13.00870 13.00905-10.65859   5.380
 4.30 2.00 -0.238 -0.235 -0.227 -0.208 -0.174 13.25864 13.25912-10.40849   7.174
 4.30 2.25 -0.163 -0.159 -0.151 -0.129 -0.090 13.50859 13.50917-10.15841   9.566
 4.30 2.50 -0.068 -0.064 -0.054 -0.030  0.013 13.75853 13.75922 -9.90833  12.755
 4.30 2.75  0.045  0.049  0.059  0.085  0.130 14.00838 14.00937 -9.65816  17.006
 4.30 3.00  0.182  0.186  0.196  0.221  0.267 14.25816 14.25959 -9.40793  22.673
 4.30 3.20  0.309  0.312  0.322  0.346  0.390 14.45794 14.45981 -9.20772  28.536
 4.30 3.40  0.449  0.453  0.462  0.484  0.525 14.65765 14.66010 -9.00744  35.912
 4.30 3.60  0.606  0.609  0.617  0.637  0.674 14.85724 14.86051 -8.80705  45.189
 4.30 3.80  0.775  0.778  0.785  0.803  0.836 15.05661 15.06113 -8.60643  56.851
 4.30 4.00  0.953  0.956  0.961  0.977  1.005 15.25576 15.26198 -8.40561  71.506
 4.30 4.20  1.142  1.144  1.149  1.163  1.187 15.45456 15.46315 -8.20446  89.895
 4.30 4.40  1.334  1.336  1.340  1.351  1.371 15.65298 15.66469 -8.00295 112.960
 4.30 4.60  1.530  1.531  1.535  1.544  1.561 15.85091 15.86670 -7.80091 141.866
 4.30 4.80  1.728  1.729  1.733  1.740  1.755 16.04831 16.06919 -7.59836 178.066
 4.30 5.00  1.927  1.927  1.930  1.936  1.948 16.24527 16.27207 -7.39545 223.391
 4.30 5.20  2.130  2.131  2.133  2.139  2.149 16.44194 16.47518 -7.19238 280.156
 4.30 5.40  2.334  2.335  2.336  2.341  2.349 16.63810 16.67870 -6.98893 351.139
 4.30 5.60  2.539  2.540  2.541  2.545  2.551 16.83382 16.88257 -6.78510 439.876
 4.30 5.80  2.745  2.745  2.746  2.749  2.754 17.02866 17.08712 -6.58052 550.492
 4.30 6.00  2.945  2.945  2.946  2.948  2.952 17.22246 17.29248 -6.37510 688.089
 4.30 6.25  3.188  3.188  3.189  3.191  3.194 17.46097 17.55203 -6.11550 905.515
 4.30 6.50  3.419  3.419  3.419  3.420  3.423 17.69461 17.81485 -5.852631184.971
 4.30 6.75  3.627  3.627  3.627  3.628  3.630 17.91981 18.08292 -5.584561535.695
 4.30 7.00  3.814  3.814  3.815  3.815  3.817 18.13609 18.35449 -5.313011969.910
 4.30 7.25  3.974  3.974  3.974  3.974  3.976 18.34055 18.63020 -5.037352492.814
 4.30 7.50  4.116  4.116  4.116  4.117  4.118 18.53491 18.90590 -4.761703118.071
 4.30 7.75  4.238  4.238  4.238  4.238  4.239 18.71996 19.18034 -4.487253858.429
 4.30 8.00  4.351  4.351  4.351  4.351  4.352 18.89542 19.45393 -4.213604722.137
 4.35-2.00 -0.449 -0.449 -0.448 -0.446 -0.442  9.22272  9.19479-14.47289   0.067
 4.35-1.50 -0.453 -0.453 -0.452 -0.449 -0.443  9.71784  9.69975-13.96778   0.117
 4.35-1.00 -0.455 -0.455 -0.453 -0.449 -0.442 10.21325 10.20466-13.46306   0.205
 4.35-0.50 -0.453 -0.452 -0.450 -0.445 -0.436 10.71062 10.70714-12.96059   0.362
 4.35 0.00 -0.444 -0.444 -0.441 -0.436 -0.425 11.20951 11.20817-12.45930   0.641
 4.35 0.50 -0.428 -0.427 -0.425 -0.418 -0.406 11.70910 11.70868-11.95900   1.138
 4.35 1.00 -0.400 -0.399 -0.396 -0.389 -0.374 12.20898 12.20898-11.45880   2.023
 4.35 1.25 -0.380 -0.379 -0.376 -0.367 -0.351 12.45891 12.45895-11.20870   2.697
 4.35 1.50 -0.356 -0.354 -0.351 -0.341 -0.324 12.70885 12.70893-10.95861   3.596
 4.35 1.75 -0.323 -0.321 -0.317 -0.306 -0.286 12.95878 12.95894-10.70856   4.795
 4.35 2.00 -0.281 -0.279 -0.274 -0.262 -0.239 13.20871 13.20898-10.45855   6.395
 4.35 2.25 -0.224 -0.222 -0.216 -0.201 -0.174 13.45869 13.45904-10.20858   8.527
 4.35 2.50 -0.151 -0.148 -0.141 -0.124 -0.093 13.70868 13.70910 -9.95861  11.369
 4.35 2.75 -0.056 -0.053 -0.046 -0.026  0.008 13.95857 13.95917 -9.70848  15.160
 4.35 3.00  0.059  0.062  0.070  0.092  0.131 14.20844 14.20925 -9.45830  20.215
 4.35 3.20  0.170  0.173  0.181  0.203  0.243 14.40834 14.40936 -9.25811  25.446
 4.35 3.40  0.295  0.299  0.307  0.329  0.369 14.60823 14.60952 -9.05791  32.028
 4.35 3.60  0.436  0.440  0.448  0.469  0.508 14.80809 14.80973 -8.85774  40.314
 4.35 3.80  0.592  0.595  0.602  0.622  0.658 15.00789 15.01000 -8.65758  50.741
 4.35 4.00  0.759  0.761  0.768  0.786  0.819 15.20763 15.21032 -8.45742  63.863
 4.35 4.20  0.938  0.940  0.946  0.962  0.991 15.40727 15.41066 -8.25707  80.366
 4.35 4.40  1.124  1.126  1.131  1.144  1.169 15.60677 15.61107 -8.05656 101.117
 4.35 4.60  1.318  1.320  1.324  1.335  1.356 15.80610 15.81164 -7.85588 127.201
 4.35 4.80  1.518  1.519  1.523  1.532  1.549 16.00513 16.01255 -7.65494 159.962
 4.35 5.00  1.719  1.720  1.723  1.730  1.744 16.20385 16.21378 -7.45370 201.089
 4.35 5.20  1.926  1.927  1.929  1.935  1.946 16.40203 16.41559 -7.25199 252.621
 4.35 5.40  2.132  2.133  2.134  2.139  2.148 16.59967 16.61790 -7.04976 317.158
 4.35 5.60  2.339  2.339  2.341  2.344  2.352 16.79672 16.82072 -6.84696 397.925
 4.35 5.80  2.547  2.547  2.548  2.551  2.557 16.99305 17.02412 -6.64348 498.862
 4.35 6.00  2.753  2.754  2.755  2.756  2.761 17.18865 17.22814 -6.43938 624.873
 4.35 6.25  3.016  3.016  3.016  3.018  3.021 17.43211 17.48405 -6.18354 827.019
 4.35 6.50  3.270  3.270  3.271  3.272  3.274 17.67367 17.74147 -5.926281092.123
 4.35 6.75  3.517  3.517  3.517  3.518  3.520 17.91184 18.00143 -5.666301436.584
 4.35 7.00  3.751  3.751  3.751  3.752  3.753 18.14551 18.26435 -5.403291879.926
 4.35 7.25  3.963  3.963  3.963  3.964  3.965 18.37130 18.53197 -5.135662438.122
 4.35 7.50  4.157  4.157  4.157  4.157  4.158 18.58894 18.80277 -4.864873132.655
 4.35 7.75  4.323  4.323  4.323  4.323  4.324 18.79637 19.07603 -4.591623977.663
 4.35 8.00  4.474  4.474  4.474  4.475  4.475 18.99427 19.35199 -4.315694995.317
 4.40-2.00 -0.441 -0.441 -0.441 -0.439 -0.436  9.17696  9.13988-14.52754   0.061
 4.40-1.50 -0.439 -0.438 -0.438 -0.436 -0.431  9.67651  9.64048-14.02710   0.107
 4.40-1.00 -0.435 -0.435 -0.434 -0.431 -0.426 10.17522 10.14208-13.52564   0.190
 4.40-0.50 -0.433 -0.432 -0.431 -0.427 -0.420 10.67219 10.64513-13.02241   0.335
 4.40 0.00 -0.429 -0.428 -0.426 -0.421 -0.411 11.16732 11.15045-12.51727   0.587
 4.40 0.50 -0.419 -0.418 -0.415 -0.408 -0.396 11.66285 11.65495-12.01269   1.027
 4.40 1.00 -0.395 -0.394 -0.391 -0.383 -0.367 12.16047 12.15746-11.51018   1.812
 4.40 1.25 -0.378 -0.376 -0.373 -0.364 -0.347 12.40979 12.40800-11.25957   2.411
 4.40 1.50 -0.354 -0.353 -0.349 -0.340 -0.322 12.65935 12.65839-11.00917   3.210
 4.40 1.75 -0.326 -0.324 -0.320 -0.310 -0.291 12.90912 12.90873-10.75894   4.277
 4.40 2.00 -0.291 -0.289 -0.285 -0.274 -0.253 13.15897 13.15897-10.50878   5.701
 4.40 2.25 -0.246 -0.244 -0.240 -0.227 -0.205 13.40886 13.40901-10.25869   7.601
 4.40 2.50 -0.190 -0.188 -0.183 -0.170 -0.145 13.65878 13.65906-10.00860  10.134
 4.40 2.75 -0.117 -0.115 -0.109 -0.095 -0.067 13.90872 13.90916 -9.75848  13.513
 4.40 3.00 -0.027 -0.024 -0.018 -0.002  0.026 14.15866 14.15927 -9.50836  18.019
 4.40 3.20  0.064  0.066  0.073  0.089  0.120 14.35857 14.35934 -9.30830  22.682
 4.40 3.40  0.170  0.172  0.179  0.196  0.228 14.55845 14.55941 -9.10823  28.551
 4.40 3.60  0.293  0.296  0.302  0.319  0.351 14.75833 14.75953 -8.90812  35.939
 4.40 3.80  0.434  0.437  0.443  0.460  0.491 14.95821 14.95970 -8.70796  45.239
 4.40 4.00  0.589  0.592  0.597  0.613  0.644 15.15806 15.15987 -8.50780  56.944
 4.40 4.20  0.761  0.763  0.768  0.783  0.811 15.35788 15.36000 -8.30764  71.674
 4.40 4.40  0.941  0.943  0.948  0.961  0.987 15.55766 15.56013 -8.10748  90.209
 4.40 4.60  1.130  1.132  1.136  1.148  1.170 15.75739 15.76031 -7.90726 113.533
 4.40 4.80  1.326  1.328  1.332  1.341  1.361 15.95702 15.96063 -7.70689 142.875
 4.40 5.00  1.526  1.527  1.530  1.538  1.554 16.15655 16.16107 -7.50640 179.780
 4.40 5.20  1.732  1.733  1.736  1.743  1.756 16.35593 16.36173 -7.30578 226.161
 4.40 5.40  1.940  1.941  1.943  1.948  1.959 16.55508 16.56266 -7.10492 284.420
 4.40 5.60  2.151  2.151  2.153  2.157  2.166 16.75389 16.76392 -6.90374 357.559
 4.40 5.80  2.363  2.364  2.365  2.368  2.375 16.95214 16.96567 -6.70201 449.243
 4.40 6.00  2.574  2.574  2.575  2.577  2.582 17.14983 17.16791 -6.49976 564.090
 4.40 6.25  2.842  2.843  2.843  2.845  2.849 17.39582 17.42166 -6.24597 748.760
 4.40 6.50  3.108  3.108  3.108  3.109  3.112 17.64038 17.67660 -5.99097 992.263
 4.40 6.75  3.374  3.374  3.374  3.375  3.377 17.88329 17.93297 -5.734591312.490
 4.40 7.00  3.631  3.631  3.631  3.632  3.633 18.12385 18.19117 -5.476381731.419
 4.40 7.25  3.877  3.877  3.877  3.877  3.879 18.36099 18.45194 -5.215602274.883
 4.40 7.50  4.110  4.110  4.110  4.111  4.111 18.59362 18.71559 -4.951952973.385
 4.40 7.75  4.321  4.321  4.321  4.321  4.322 18.81862 18.98298 -4.684573852.716
 4.40 8.00  4.516  4.516  4.516  4.516  4.516 19.03703 19.25382 -4.413754954.615
 4.45-2.00 -0.437 -0.437 -0.436 -0.434 -0.431  9.12710  9.08991-14.57790   0.054
 4.45-1.50 -0.434 -0.434 -0.434 -0.432 -0.428  9.62716  9.58973-14.07785   0.096
 4.45-1.00 -0.431 -0.431 -0.430 -0.428 -0.423 10.12711 10.08990-13.57774   0.171
 4.45-0.50 -0.427 -0.426 -0.425 -0.422 -0.416 10.62685 10.59017-13.07743   0.303
 4.45 0.00 -0.419 -0.419 -0.418 -0.414 -0.406 11.12613 11.09096-12.57659   0.538
 4.45 0.50 -0.408 -0.407 -0.405 -0.400 -0.391 11.62428 11.59295-12.07469   0.951
 4.45 1.00 -0.388 -0.387 -0.385 -0.378 -0.364 12.12057 12.09691-11.57057   1.670
 4.45 1.25 -0.373 -0.371 -0.369 -0.361 -0.346 12.36795 12.34959-11.31794   2.208
 4.45 1.50 -0.351 -0.350 -0.346 -0.337 -0.320 12.61532 12.60228-11.06530   2.920
 4.45 1.75 -0.324 -0.322 -0.319 -0.309 -0.289 12.86325 12.85444-10.81310   3.867
 4.45 2.00 -0.289 -0.287 -0.283 -0.271 -0.249 13.11160 13.10619-10.56130   5.127
 4.45 2.25 -0.247 -0.245 -0.241 -0.228 -0.204 13.36048 13.35732-10.31024   6.811
 4.45 2.50 -0.196 -0.194 -0.189 -0.175 -0.150 13.60970 13.60810-10.05953   9.059
 4.45 2.75 -0.134 -0.132 -0.127 -0.112 -0.085 13.85923 13.85858 -9.80909  12.060
 4.45 3.00 -0.059 -0.057 -0.051 -0.036 -0.007 14.10890 14.10890 -9.55878  16.067
 4.45 3.20  0.014  0.016  0.022  0.038  0.068 14.30874 14.30907 -9.35862  20.221
 4.45 3.40  0.101  0.103  0.109  0.125  0.154 14.50859 14.50921 -9.15847  25.452
 4.45 3.60  0.204  0.206  0.212  0.227  0.257 14.70847 14.70934 -8.95831  32.037
 4.45 3.80  0.324  0.327  0.332  0.347  0.375 14.90835 14.90946 -8.75815  40.328
 4.45 4.00  0.460  0.462  0.467  0.481  0.507 15.10823 15.10958 -8.55799  50.764
 4.45 4.20  0.617  0.618  0.623  0.636  0.661 15.30809 15.30971 -8.35787  63.897
 4.45 4.40  0.785  0.787  0.791  0.802  0.825 15.50795 15.50984 -8.15775  80.427
 4.45 4.60  0.966  0.967  0.971  0.981  1.002 15.70782 15.71004 -7.95762 101.231
 4.45 4.80  1.158  1.159  1.162  1.171  1.190 15.90768 15.91031 -7.75743 127.415
 4.45 5.00  1.354  1.355  1.358  1.365  1.381 16.10755 16.11059 -7.55721 160.368
 4.45 5.20  1.559  1.560  1.562  1.569  1.583 16.30722 16.31087 -7.35692 201.820
 4.45 5.40  1.766  1.767  1.769  1.774  1.786 16.50677 16.51115 -7.15654 253.956
 4.45 5.60  1.976  1.977  1.978  1.983  1.992 16.70620 16.71157 -6.95604 319.522
 4.45 5.80  2.189  2.189  2.190  2.194  2.202 16.90545 16.91229 -6.75533 401.929
 4.45 6.00  2.402  2.402  2.403  2.405  2.411 17.10449 17.11327 -6.55440 505.462
 4.45 6.25  2.673  2.674  2.674  2.676  2.681 17.35270 17.36497 -6.30265 672.661
 4.45 6.50  2.944  2.944  2.944  2.946  2.949 17.60010 17.61742 -6.05012 894.307
 4.45 6.75  3.220  3.220  3.220  3.221  3.224 17.84615 17.87123 -5.796371187.244
 4.45 7.00  3.492  3.492  3.492  3.493  3.494 18.09061 18.12646 -5.541211573.274
 4.45 7.25  3.760  3.760  3.761  3.761  3.762 18.33303 18.38334 -5.284312079.574
 4.45 7.50  4.017  4.017  4.017  4.017  4.018 18.57276 18.64227 -5.025302740.115
 4.45 7.75  4.257  4.258  4.258  4.258  4.258 18.80817 18.90408 -4.763433592.906
 4.45 8.00  4.486  4.486  4.486  4.486  4.486 19.03981 19.16850 -4.498944690.865
 4.50-2.00 -0.436 -0.436 -0.435 -0.433 -0.430  9.07737  9.03981-14.62783   0.048
 4.50-1.50 -0.432 -0.431 -0.431 -0.429 -0.425  9.57726  9.53970-14.12784   0.086
 4.50-1.00 -0.427 -0.427 -0.426 -0.424 -0.419 10.07737 10.03981-13.62783   0.152
 4.50-0.50 -0.422 -0.422 -0.421 -0.418 -0.413 10.57715 10.53983-13.12779   0.271
 4.50 0.00 -0.416 -0.416 -0.415 -0.412 -0.405 11.07700 11.03981-12.62764   0.481
 4.50 0.50 -0.408 -0.407 -0.406 -0.402 -0.393 11.57692 11.54008-12.12755   0.855
 4.50 1.00 -0.392 -0.391 -0.389 -0.384 -0.373 12.07628 12.04060-11.62690   1.518
 4.50 1.25 -0.378 -0.378 -0.376 -0.370 -0.357 12.32578 12.29119-11.37635   2.021
 4.50 1.50 -0.360 -0.359 -0.357 -0.350 -0.336 12.57507 12.54208-11.12552   2.687
 4.50 1.75 -0.334 -0.333 -0.330 -0.322 -0.306 12.82370 12.79346-10.87407   3.568
 4.50 2.00 -0.299 -0.298 -0.295 -0.286 -0.267 13.07188 13.04532-10.62215   4.731
 4.50 2.25 -0.255 -0.253 -0.250 -0.239 -0.219 13.31946 13.29796-10.36958   6.258
 4.50 2.50 -0.201 -0.199 -0.195 -0.183 -0.159 13.56703 13.55060-10.11702   8.277
 4.50 2.75 -0.139 -0.137 -0.132 -0.118 -0.092 13.81472 13.80309 -9.86456  10.951
 4.50 3.00 -0.065 -0.063 -0.057 -0.042 -0.013 14.06258 14.05538 -9.61226  14.497
 4.50 3.20  0.001  0.003  0.009  0.025  0.056 14.26137 14.25653 -9.41109  18.175
 4.50 3.40  0.078  0.080  0.086  0.103  0.135 14.46041 14.45741 -9.21017  22.806
 4.50 3.60  0.167  0.169  0.176  0.193  0.225 14.65971 14.65800 -9.00947  28.644
 4.50 3.80  0.271  0.273  0.279  0.295  0.327 14.85919 14.85844 -8.80893  36.000
 4.50 4.00  0.388  0.390  0.396  0.411  0.441 15.05881 15.05881 -8.60854  45.273
 4.50 4.20  0.526  0.528  0.534  0.548  0.575 15.25857 15.25914 -8.40835  56.976
 4.50 4.40  0.678  0.679  0.684  0.696  0.720 15.45834 15.45943 -8.20817  71.709
 4.50 4.60  0.845  0.846  0.850  0.860  0.881 15.65812 15.65963 -8.00796  90.257
 4.50 4.80  1.025  1.026  1.029  1.038  1.056 15.85789 15.85979 -7.80772 113.602
 4.50 5.00  1.211  1.212  1.214  1.221  1.236 16.05767 16.05994 -7.60748 142.986
 4.50 5.20  1.410  1.411  1.413  1.419  1.432 16.25746 16.26017 -7.40727 179.960
 4.50 5.40  1.613  1.613  1.615  1.620  1.631 16.45725 16.46046 -7.20707 226.486
 4.50 5.60  1.820  1.820  1.822  1.826  1.835 16.65700 16.66082 -7.00680 285.029
 4.50 5.80  2.032  2.032  2.033  2.037  2.045 16.85662 16.86128 -6.80641 358.677
 4.50 6.00  2.244  2.244  2.245  2.248  2.254 17.05614 17.06183 -6.60590 451.313
 4.50 6.25  2.514  2.514  2.515  2.517  2.522 17.30526 17.31260 -6.35508 601.248
 4.50 6.50  2.783  2.783  2.784  2.785  2.789 17.55400 17.56360 -6.10391 800.649
 4.50 6.75  3.061  3.062  3.062  3.063  3.066 17.80221 17.81546 -5.852101065.451
 4.50 7.00  3.339  3.339  3.339  3.340  3.342 18.04961 18.06819 -5.599461416.467
 4.50 7.25  3.619  3.619  3.619  3.620  3.621 18.29549 18.32204 -5.345601879.974
 4.50 7.50  3.893  3.893  3.893  3.894  3.894 18.53958 18.57738 -5.090232490.063
 4.50 7.75  4.158  4.158  4.158  4.159  4.159 18.78081 18.83507 -4.832493287.390
 4.50 8.00  4.408  4.408  4.408  4.408  4.408 19.01953 19.09482 -4.572684327.646
 4.55-2.00 -0.437 -0.436 -0.436 -0.435 -0.431  9.02735  8.98976-14.67778   0.043
 4.55-1.50 -0.434 -0.434 -0.433 -0.432 -0.428  9.52724  9.48968-14.17783   0.076
 4.55-1.00 -0.430 -0.430 -0.429 -0.427 -0.423 10.02735  9.98976-13.67778   0.136
 4.55-0.50 -0.424 -0.424 -0.423 -0.421 -0.416 10.52724 10.48982-13.17783   0.241
 4.55 0.00 -0.416 -0.416 -0.415 -0.412 -0.406 11.02735 10.98981-12.67778   0.429
 4.55 0.50 -0.407 -0.406 -0.405 -0.402 -0.394 11.52711 11.48982-12.17777   0.762
 4.55 1.00 -0.394 -0.393 -0.392 -0.387 -0.377 12.02694 11.98994-11.67757   1.356
 4.55 1.25 -0.384 -0.384 -0.382 -0.377 -0.366 12.27690 12.24001-11.42754   1.808
 4.55 1.50 -0.372 -0.371 -0.369 -0.363 -0.351 12.52686 12.49010-11.17751   2.409
 4.55 1.75 -0.354 -0.353 -0.351 -0.344 -0.330 12.77674 12.74031-10.92730   3.211
 4.55 2.00 -0.328 -0.328 -0.325 -0.317 -0.302 13.02653 12.99065-10.67696   4.278
 4.55 2.25 -0.292 -0.290 -0.287 -0.279 -0.261 13.27600 13.24116-10.42645   5.696
 4.55 2.50 -0.242 -0.240 -0.237 -0.228 -0.208 13.52518 13.49192-10.17568   7.577
 4.55 2.75 -0.176 -0.174 -0.170 -0.160 -0.138 13.77401 13.74322 -9.92439  10.066
 4.55 3.00 -0.095 -0.093 -0.089 -0.077 -0.053 14.02243 13.99498 -9.67264  13.352
 4.55 3.20 -0.020 -0.019 -0.014 -0.001  0.024 14.22049 14.19692 -9.47065  16.704
 4.55 3.40  0.061  0.063  0.068  0.082  0.109 14.41856 14.39893 -9.26863  20.896
 4.55 3.60  0.151  0.153  0.158  0.173  0.202 14.61663 14.60101 -9.06660  26.138
 4.55 3.80  0.250  0.252  0.258  0.273  0.304 14.81472 14.80309 -8.86457  32.694
 4.55 4.00  0.360  0.362  0.368  0.384  0.415 15.01284 15.00518 -8.66254  40.895
 4.55 4.20  0.484  0.486  0.491  0.506  0.536 15.21144 15.20643 -8.46121  51.241
 4.55 4.40  0.620  0.622  0.627  0.641  0.669 15.41033 15.40744 -8.26014  64.268
 4.55 4.60  0.772  0.774  0.778  0.790  0.815 15.60958 15.60825 -8.05932  80.700
 4.55 4.80  0.937  0.938  0.942  0.952  0.973 15.80906 15.80893 -7.85866 101.423
 4.55 5.00  1.110  1.111  1.114  1.122  1.139 16.00860 16.00945 -7.65817 127.546
 4.55 5.20  1.298  1.299  1.301  1.308  1.322 16.20816 16.20973 -7.45788 160.504
 4.55 5.40  1.489  1.490  1.492  1.497  1.508 16.40777 16.41001 -7.25760 201.983
 4.55 5.60  1.688  1.689  1.690  1.695  1.704 16.60745 16.61034 -7.05730 254.187
 4.55 5.80  1.894  1.895  1.896  1.899  1.907 16.80717 16.81075 -6.85696 319.885
 4.55 6.00  2.101  2.101  2.102  2.105  2.110 17.00690 17.01115 -6.65659 402.564
 4.55 6.25  2.367  2.368  2.368  2.370  2.375 17.25631 17.26165 -6.40606 536.490
 4.55 6.50  2.633  2.633  2.634  2.636  2.639 17.50556 17.51215 -6.15540 714.838
 4.55 6.75  2.906  2.906  2.906  2.907  2.910 17.75466 17.76311 -5.90442 952.200
 4.55 7.00  3.182  3.182  3.182  3.183  3.185 18.00346 18.01452 -5.653061267.819
 4.55 7.25  3.463  3.463  3.463  3.463  3.465 18.25133 18.26654 -5.401091686.616
 4.55 7.50  3.742  3.742  3.742  3.742  3.744 18.49817 18.51944 -5.148252241.271
 4.55 7.75  4.018  4.018  4.019  4.019  4.020 18.74332 18.77393 -4.893702972.241
 4.55 8.00  4.286  4.286  4.286  4.287  4.287 18.98700 19.02979 -4.637713934.786
 4.60-2.00 -0.433 -0.433 -0.433 -0.431 -0.428  8.97727  8.93977-14.72793   0.038
 4.60-1.50 -0.432 -0.432 -0.431 -0.430 -0.426  9.47727  9.43965-14.22790   0.068
 4.60-1.00 -0.430 -0.430 -0.429 -0.427 -0.423  9.97727  9.93977-13.72793   0.121
 4.60-0.50 -0.426 -0.426 -0.426 -0.424 -0.419 10.47727 10.43981-13.22783   0.215
 4.60 0.00 -0.421 -0.421 -0.420 -0.418 -0.413 10.97722 10.93982-12.72769   0.382
 4.60 0.50 -0.413 -0.413 -0.412 -0.409 -0.403 11.47712 11.43981-12.22783   0.680
 4.60 1.00 -0.401 -0.401 -0.400 -0.396 -0.388 11.97717 11.93987-11.72769   1.208
 4.60 1.25 -0.393 -0.393 -0.391 -0.387 -0.378 12.22715 12.18984-11.47772   1.611
 4.60 1.50 -0.382 -0.382 -0.380 -0.375 -0.365 12.47712 12.43981-11.22775   2.148
 4.60 1.75 -0.369 -0.368 -0.366 -0.360 -0.348 12.72709 12.68991-10.97774   2.864
 4.60 2.00 -0.349 -0.349 -0.347 -0.340 -0.326 12.97704 12.94002-10.72769   3.819
 4.60 2.25 -0.324 -0.323 -0.320 -0.313 -0.297 13.22696 13.19007-10.47757   5.092
 4.60 2.50 -0.287 -0.286 -0.283 -0.275 -0.257 13.47683 13.44012-10.22738   6.787
 4.60 2.75 -0.236 -0.235 -0.232 -0.223 -0.203 13.72663 13.69039 -9.97713   9.045
 4.60 3.00 -0.169 -0.168 -0.164 -0.154 -0.132 13.97631 13.94082 -9.72677  12.049
 4.60 3.20 -0.100 -0.098 -0.094 -0.083 -0.060 14.17589 14.14124 -9.52635  15.149
 4.60 3.40 -0.018 -0.016 -0.012  0.000  0.024 14.37531 14.34182 -9.32577  19.037
 4.60 3.60  0.077  0.079  0.083  0.095  0.121 14.57449 14.54267 -9.12492  23.904
 4.60 3.80  0.186  0.188  0.193  0.205  0.231 14.77337 14.74391 -8.92369  29.984
 4.60 4.00  0.306  0.308  0.312  0.325  0.351 14.97197 14.94547 -8.72216  37.574
 4.60 4.20  0.438  0.440  0.444  0.457  0.482 15.16999 15.14756 -8.52008  46.994
 4.60 4.40  0.578  0.579  0.583  0.596  0.621 15.36801 15.34966 -8.31800  58.775
 4.60 4.60  0.725  0.727  0.731  0.742  0.766 15.56603 15.55174 -8.11592  73.511
 4.60 4.80  0.882  0.883  0.887  0.897  0.919 15.76409 15.75374 -7.91392  91.946
 4.60 5.00  1.045  1.046  1.050  1.059  1.078 15.96218 15.95564 -7.71197 115.013
 4.60 5.20  1.218  1.219  1.222  1.230  1.246 16.16081 16.15696 -7.51062 144.095
 4.60 5.40  1.397  1.398  1.400  1.406  1.420 16.35970 16.35804 -7.30953 180.726
 4.60 5.60  1.584  1.585  1.587  1.592  1.602 16.55891 16.55887 -7.10873 227.033
 4.60 5.80  1.778  1.779  1.780  1.784  1.793 16.75828 16.75956 -6.90808 285.501
 4.60 6.00  1.975  1.975  1.976  1.979  1.986 16.95770 16.96014 -6.70752 359.139
 4.60 6.25  2.232  2.232  2.233  2.235  2.240 17.20704 17.21074 -6.45690 478.574
 4.60 6.50  2.490  2.490  2.490  2.492  2.495 17.45637 17.46135 -6.20628 637.729
 4.60 6.75  2.752  2.752  2.752  2.754  2.757 17.70567 17.71206 -5.95554 849.737
 4.60 7.00  3.020  3.020  3.021  3.022  3.024 17.95492 17.96289 -5.704651132.078
 4.60 7.25  3.295  3.295  3.296  3.296  3.298 18.20368 18.21406 -5.453511507.544
 4.60 7.50  3.570  3.570  3.571  3.571  3.572 18.45194 18.46568 -5.201972006.422
 4.60 7.75  3.847  3.847  3.847  3.847  3.848 18.69933 18.71822 -4.949462667.488
 4.60 8.00  4.118  4.118  4.118  4.118  4.119 18.94596 18.97151 -4.696163543.127
 4.65-2.00 -0.431 -0.431 -0.430 -0.429 -0.424  8.92727  8.88975-14.77780   0.034
 4.65-1.50 -0.429 -0.429 -0.428 -0.427 -0.423  9.42716  9.38970-14.27786   0.061
 4.65-1.00 -0.427 -0.427 -0.426 -0.425 -0.420  9.92727  9.88975-13.77780   0.108
 4.65-0.50 -0.425 -0.425 -0.424 -0.422 -0.418 10.42716 10.38970-13.27786   0.192
 4.65 0.00 -0.422 -0.422 -0.421 -0.419 -0.414 10.92727 10.88981-12.77780   0.341
 4.65 0.50 -0.417 -0.417 -0.416 -0.414 -0.408 11.42716 11.38970-12.27778   0.606
 4.65 1.00 -0.409 -0.409 -0.408 -0.405 -0.398 11.92722 11.88986-11.77780   1.077
 4.65 1.25 -0.404 -0.403 -0.402 -0.399 -0.391 12.17719 12.13987-11.52780   1.436
 4.65 1.50 -0.396 -0.396 -0.395 -0.391 -0.382 12.42716 12.38987-11.27778   1.915
 4.65 1.75 -0.386 -0.386 -0.384 -0.380 -0.370 12.67714 12.63989-11.02766   2.554
 4.65 2.00 -0.373 -0.372 -0.371 -0.366 -0.355 12.92711 12.88992-10.77754   3.405
 4.65 2.25 -0.354 -0.353 -0.351 -0.346 -0.333 13.17706 13.13999-10.52758   4.540
 4.65 2.50 -0.327 -0.327 -0.324 -0.318 -0.303 13.42700 13.39005-10.27761   6.053
 4.65 2.75 -0.290 -0.289 -0.287 -0.279 -0.262 13.67695 13.64010-10.02760   8.070
 4.65 3.00 -0.238 -0.237 -0.234 -0.226 -0.206 13.92691 13.89014 -9.77754  10.760
 4.65 3.20 -0.184 -0.183 -0.180 -0.170 -0.149 14.12678 14.09021 -9.57742  13.542
 4.65 3.40 -0.117 -0.115 -0.112 -0.101 -0.078 14.32661 14.29033 -9.37724  17.040
 4.65 3.60 -0.034 -0.033 -0.029 -0.018  0.006 14.52642 14.49052 -9.17699  21.440
 4.65 3.80  0.063  0.064  0.068  0.080  0.106 14.72620 14.69083 -8.97666  26.971
 4.65 4.00  0.176  0.177  0.181  0.193  0.220 14.92593 14.89126 -8.77625  33.919
 4.65 4.20  0.306  0.307  0.311  0.323  0.350 15.12542 15.09182 -8.57572  42.630
 4.65 4.40  0.450  0.451  0.455  0.467  0.492 15.32468 15.29259 -8.37501  53.540
 4.65 4.60  0.608  0.609  0.612  0.623  0.646 15.52364 15.49368 -8.17392  67.178
 4.65 4.80  0.776  0.777  0.780  0.790  0.811 15.72226 15.69515 -7.97238  84.195
 4.65 5.00  0.950  0.951  0.953  0.962  0.980 15.92059 15.89691 -7.77057 105.422
 4.65 5.20  1.128  1.129  1.132  1.139  1.155 16.11848 16.09912 -7.56843 131.790
 4.65 5.40  1.308  1.309  1.311  1.317  1.331 16.31637 16.30133 -7.36627 164.753
 4.65 5.60  1.489  1.490  1.492  1.497  1.509 16.51431 16.50346 -7.16417 205.992
 4.65 5.80  1.673  1.674  1.675  1.680  1.689 16.71244 16.70537 -6.96223 257.697
 4.65 6.00  1.859  1.860  1.861  1.865  1.873 16.91073 16.90709 -6.76045 322.552
 4.65 6.25  2.100  2.101  2.102  2.105  2.111 17.15915 17.15856 -6.50900 428.209
 4.65 6.50  2.345  2.346  2.346  2.348  2.353 17.40790 17.40977 -6.25783 569.381
 4.65 6.75  2.596  2.596  2.596  2.598  2.601 17.65701 17.66073 -6.00690 758.483
 4.65 7.00  2.849  2.849  2.849  2.850  2.853 17.90612 17.91169 -5.755971010.388
 4.65 7.25  3.113  3.113  3.113  3.114  3.116 18.15512 18.16270 -5.504991345.817
 4.65 7.50  3.377  3.377  3.377  3.378  3.379 18.40398 18.41380 -5.253911792.340
 4.65 7.75  3.645  3.645  3.645  3.645  3.646 18.65236 18.66540 -5.002312385.632
 4.65 8.00  3.910  3.910  3.910  3.910  3.911 18.90037 18.91735 -4.750313173.938
 4.70-2.00 -0.431 -0.431 -0.430 -0.429 -0.424  8.87726  8.83973-14.82798   0.030
 4.70-1.50 -0.428 -0.428 -0.427 -0.425 -0.421  9.37731  9.33965-14.32790   0.054
 4.70-1.00 -0.425 -0.425 -0.424 -0.422 -0.417  9.87726  9.83979-13.82769   0.096
 4.70-0.50 -0.422 -0.422 -0.422 -0.420 -0.414 10.37731 10.33965-13.32790   0.171
 4.70 0.00 -0.420 -0.420 -0.419 -0.417 -0.411 10.87726 10.83979-12.82769   0.304
 4.70 0.50 -0.416 -0.416 -0.415 -0.413 -0.407 11.37712 11.33985-12.32781   0.540
 4.70 1.00 -0.411 -0.411 -0.410 -0.408 -0.401 11.87720 11.83986-11.82769   0.960
 4.70 1.25 -0.408 -0.407 -0.406 -0.404 -0.397 12.12716 12.08985-11.57775   1.280
 4.70 1.50 -0.403 -0.403 -0.402 -0.399 -0.391 12.37712 12.33985-11.32781   1.707
 4.70 1.75 -0.396 -0.396 -0.395 -0.392 -0.383 12.62713 12.58988-11.07775   2.276
 4.70 2.00 -0.388 -0.388 -0.387 -0.383 -0.374 12.87714 12.83992-10.82769   3.035
 4.70 2.25 -0.376 -0.375 -0.374 -0.370 -0.359 13.12714 13.08988-10.57770   4.047
 4.70 2.50 -0.359 -0.359 -0.357 -0.352 -0.341 13.37712 13.33985-10.32772   5.396
 4.70 2.75 -0.335 -0.334 -0.332 -0.326 -0.313 13.62708 13.58995-10.07771   7.195
 4.70 3.00 -0.300 -0.299 -0.297 -0.290 -0.275 13.87703 13.84004 -9.82769   9.593
 4.70 3.20 -0.261 -0.260 -0.258 -0.250 -0.233 14.07699 14.04005 -9.62760  12.075
 4.70 3.40 -0.211 -0.210 -0.207 -0.199 -0.180 14.27696 14.24005 -9.42750  15.200
 4.70 3.60 -0.147 -0.146 -0.143 -0.133 -0.112 14.47691 14.44009 -9.22738  19.132
 4.70 3.80 -0.067 -0.066 -0.062 -0.052 -0.029 14.67681 14.64021 -9.02725  24.080
 4.70 4.00  0.029  0.030  0.033  0.044  0.069 14.87668 14.84036 -8.82711  30.305
 4.70 4.20  0.142  0.144  0.147  0.159  0.185 15.07653 15.04052 -8.62696  38.133
 4.70 4.40  0.273  0.274  0.278  0.289  0.316 15.27633 15.24072 -8.42679  47.974
 4.70 4.60  0.419  0.420  0.424  0.435  0.462 15.47607 15.44101 -8.22657  60.343
 4.70 4.80  0.579  0.581  0.584  0.595  0.620 15.67569 15.64145 -8.02618  75.874
 4.70 5.00  0.751  0.752  0.755  0.765  0.788 15.87518 15.84205 -7.82565  95.362
 4.70 5.20  0.934  0.935  0.938  0.946  0.967 16.07440 16.04286 -7.62479 119.749
 4.70 5.40  1.123  1.123  1.126  1.133  1.151 16.27336 16.24394 -7.42363 150.238
 4.70 5.60  1.315  1.316  1.318  1.324  1.339 16.47190 16.44551 -7.22208 188.252
 4.70 5.80  1.509  1.510  1.512  1.517  1.530 16.67010 16.64745 -7.02022 235.618
 4.70 6.00  1.703  1.703  1.705  1.709  1.719 16.86812 16.84954 -6.81816 294.690
 4.70 6.25  1.944  1.944  1.945  1.949  1.957 17.11539 17.10231 -6.56531 389.394
 4.70 6.50  2.184  2.184  2.185  2.188  2.194 17.36267 17.35507 -6.31247 514.532
 4.70 6.75  2.426  2.426  2.427  2.429  2.433 17.61045 17.60734 -6.06018 681.060
 4.70 7.00  2.657  2.657  2.658  2.659  2.663 17.85854 17.85926 -5.80827 903.012
 4.70 7.25  2.906  2.906  2.907  2.908  2.910 18.10706 18.11059 -5.556921202.237
 4.70 7.50  3.157  3.157  3.157  3.158  3.160 18.35564 18.36192 -5.305571600.613
 4.70 7.75  3.411  3.411  3.411  3.412  3.413 18.60426 18.61336 -5.054162130.959
 4.70 8.00  3.665  3.665  3.666  3.666  3.667 18.85291 18.86487 -4.802722836.997
 4.75-2.00 -0.432 -0.432 -0.431 -0.430 -0.425  8.82730  8.78972-14.87778   0.027
 4.75-1.50 -0.430 -0.430 -0.429 -0.427 -0.423  9.32715  9.28981-14.37789   0.048
 4.75-1.00 -0.427 -0.427 -0.426 -0.424 -0.420  9.82724  9.78979-13.87778   0.086
 4.75-0.50 -0.423 -0.423 -0.422 -0.421 -0.415 10.32716 10.28981-13.37789   0.152
 4.75 0.00 -0.418 -0.418 -0.418 -0.415 -0.410 10.82724 10.78979-12.87778   0.271
 4.75 0.50 -0.414 -0.413 -0.413 -0.410 -0.404 11.32716 11.28981-12.37779   0.481
 4.75 1.00 -0.409 -0.409 -0.408 -0.405 -0.398 11.82724 11.78979-11.87778   0.856
 4.75 1.25 -0.406 -0.406 -0.405 -0.403 -0.395 12.07720 12.03980-11.62779   1.141
 4.75 1.50 -0.403 -0.403 -0.402 -0.399 -0.391 12.32716 12.28981-11.37779   1.521
 4.75 1.75 -0.399 -0.399 -0.398 -0.395 -0.387 12.57717 12.53984-11.12779   2.028
 4.75 2.00 -0.394 -0.394 -0.393 -0.389 -0.381 12.82718 12.78986-10.87778   2.705
 4.75 2.25 -0.386 -0.386 -0.385 -0.381 -0.373 13.07717 13.03984-10.62775   3.607
 4.75 2.50 -0.376 -0.376 -0.375 -0.371 -0.361 13.32715 13.28981-10.37768   4.809
 4.75 2.75 -0.361 -0.360 -0.359 -0.355 -0.344 13.57710 13.53991-10.12757   6.413
 4.75 3.00 -0.339 -0.339 -0.337 -0.332 -0.320 13.82705 13.79000 -9.87746   8.551
 4.75 3.20 -0.314 -0.314 -0.312 -0.306 -0.293 14.02701 13.99002 -9.67751  10.764
 4.75 3.40 -0.281 -0.281 -0.279 -0.272 -0.257 14.22697 14.19003 -9.47755  13.550
 4.75 3.60 -0.237 -0.237 -0.234 -0.227 -0.210 14.42693 14.39006 -9.27757  17.056
 4.75 3.80 -0.180 -0.179 -0.177 -0.169 -0.150 14.62689 14.59013 -9.07753  21.469
 4.75 4.00 -0.108 -0.107 -0.104 -0.095 -0.074 14.82685 14.79022 -8.87746  27.024
 4.75 4.20 -0.017 -0.016 -0.013 -0.004  0.018 15.02673 14.99031 -8.67735  34.014
 4.75 4.40  0.090  0.091  0.094  0.104  0.129 15.22660 15.19042 -8.47723  42.809
 4.75 4.60  0.216  0.217  0.220  0.231  0.257 15.42649 15.39054 -8.27710  53.875
 4.75 4.80  0.359  0.361  0.364  0.375  0.401 15.62638 15.59068 -8.07696  67.793
 4.75 5.00  0.517  0.519  0.522  0.533  0.558 15.82627 15.79085 -7.87680  85.295
 4.75 5.20  0.689  0.690  0.693  0.703  0.728 16.02605 15.99108 -7.67654 107.295
 4.75 5.40  0.870  0.871  0.874  0.883  0.906 16.22572 16.19140 -7.47616 134.931
 4.75 5.60  1.058  1.059  1.061  1.070  1.090 16.42526 16.39188 -7.27563 169.620
 4.75 5.80  1.251  1.251  1.254  1.261  1.279 16.62457 16.59264 -7.07486 213.084
 4.75 6.00  1.447  1.448  1.450  1.456  1.472 16.82367 16.79365 -6.87387 267.500
 4.75 6.25  1.696  1.697  1.698  1.704  1.716 17.07204 17.04536 -6.62215 354.814
 4.75 6.50  1.947  1.948  1.949  1.953  1.963 17.31994 17.29754 -6.36998 469.888
 4.75 6.75  2.196  2.196  2.197  2.200  2.208 17.56716 17.55047 -6.11711 620.873
 4.75 7.00  2.434  2.434  2.435  2.437  2.443 17.81438 17.80339 -5.86423 820.372
 4.75 7.25  2.677  2.677  2.678  2.679  2.684 18.06172 18.05609 -5.611531084.159
 4.75 7.50  2.920  2.920  2.920  2.921  2.924 18.30920 18.30857 -5.359021433.205
 4.75 7.75  3.162  3.162  3.162  3.163  3.165 18.55712 18.56067 -5.106911903.329
 4.75 8.00  3.404  3.404  3.405  3.405  3.407 18.80536 18.81245 -4.855112535.659
 4.80-2.00 -0.431 -0.431 -0.430 -0.429 -0.424  8.77728  8.73973-14.92775   0.024
 4.80-1.50 -0.430 -0.430 -0.429 -0.427 -0.423  9.27715  9.23980-14.42783   0.043
 4.80-1.00 -0.428 -0.428 -0.427 -0.426 -0.421  9.77728  9.73973-13.92775   0.076
 4.80-0.50 -0.426 -0.425 -0.425 -0.423 -0.418 10.27715 10.23980-13.42783   0.136
 4.80 0.00 -0.422 -0.422 -0.421 -0.419 -0.414 10.77728 10.73981-12.92775   0.241
 4.80 0.50 -0.417 -0.417 -0.416 -0.414 -0.408 11.27715 11.23980-12.42783   0.429
 4.80 1.00 -0.410 -0.410 -0.409 -0.407 -0.400 11.77721 11.73981-11.92775   0.763
 4.80 1.25 -0.406 -0.406 -0.405 -0.403 -0.395 12.02718 11.98981-11.67779   1.017
 4.80 1.50 -0.402 -0.402 -0.401 -0.398 -0.390 12.27715 12.23980-11.42783   1.356
 4.80 1.75 -0.397 -0.397 -0.396 -0.393 -0.385 12.52718 12.48984-11.17779   1.808
 4.80 2.00 -0.392 -0.392 -0.391 -0.387 -0.378 12.77721 12.73989-10.92775   2.411
 4.80 2.25 -0.387 -0.386 -0.385 -0.382 -0.372 13.02719 12.98984-10.67772   3.215
 4.80 2.50 -0.380 -0.379 -0.378 -0.374 -0.364 13.27715 13.23980-10.42771   4.287
 4.80 2.75 -0.370 -0.370 -0.369 -0.365 -0.354 13.52711 13.48988-10.17773   5.716
 4.80 3.00 -0.357 -0.357 -0.355 -0.351 -0.340 13.77706 13.73997 -9.92775   7.622
 4.80 3.20 -0.342 -0.341 -0.340 -0.336 -0.324 13.97701 13.94000 -9.72770   9.594
 4.80 3.40 -0.322 -0.321 -0.320 -0.315 -0.302 14.17695 14.14003 -9.52763  12.077
 4.80 3.60 -0.294 -0.293 -0.292 -0.286 -0.273 14.37692 14.34007 -9.32755  15.203
 4.80 3.80 -0.256 -0.255 -0.254 -0.248 -0.233 14.57692 14.54010 -9.12747  19.137
 4.80 4.00 -0.207 -0.206 -0.204 -0.198 -0.182 14.77692 14.74013 -8.92738  24.090
 4.80 4.20 -0.142 -0.142 -0.139 -0.132 -0.114 14.97683 14.94019 -8.72737  30.323
 4.80 4.40 -0.062 -0.062 -0.059 -0.051 -0.031 15.17674 15.14026 -8.52736  38.167
 4.80 4.60  0.035  0.036  0.038  0.047  0.069 15.37666 15.34034 -8.32729  48.039
 4.80 4.80  0.152  0.153  0.156  0.165  0.189 15.57661 15.54043 -8.12715  60.463
 4.80 5.00  0.286  0.287  0.290  0.300  0.324 15.77656 15.74052 -7.92702  76.098
 4.80 5.20  0.439  0.440  0.443  0.453  0.478 15.97646 15.94062 -7.72688  95.761
 4.80 5.40  0.606  0.607  0.609  0.619  0.643 16.17632 16.14074 -7.52674 120.491
 4.80 5.60  0.783  0.784  0.787  0.796  0.819 16.37613 16.34091 -7.32656 151.594
 4.80 5.80  0.969  0.970  0.972  0.981  1.002 16.57588 16.54122 -7.12628 190.695
 4.80 6.00  1.161  1.162  1.164  1.172  1.191 16.77554 16.74162 -6.92592 239.833
 4.80 6.25  1.404  1.404  1.406  1.413  1.430 17.02487 16.99232 -6.67528 319.201
 4.80 6.50  1.650  1.651  1.653  1.658  1.673 17.27393 17.24329 -6.42435 424.449
 4.80 6.75  1.899  1.899  1.901  1.905  1.917 17.52265 17.49472 -6.17282 563.554
 4.80 7.00  2.149  2.150  2.151  2.155  2.164 17.77093 17.74664 -5.92082 747.073
 4.80 7.25  2.395  2.395  2.396  2.399  2.406 18.01832 17.99927 -5.66825 987.934
 4.80 7.50  2.644  2.644  2.645  2.647  2.652 18.26553 18.25212 -5.415441305.278
 4.80 7.75  2.886  2.886  2.887  2.888  2.892 18.51266 18.50507 -5.162501723.795
 4.80 8.00  3.127  3.127  3.127  3.128  3.131 18.75967 18.75815 -4.909392275.150
 4.85-2.00 -0.430 -0.430 -0.430 -0.428 -0.424  8.72730  8.68975-14.97798   0.021
 4.85-1.50 -0.428 -0.428 -0.428 -0.426 -0.422  9.22712  9.18977-14.47795   0.038
 4.85-1.00 -0.426 -0.426 -0.426 -0.424 -0.419  9.72730  9.68975-13.97798   0.068
 4.85-0.50 -0.425 -0.425 -0.424 -0.422 -0.417 10.22712 10.18977-13.47782   0.121
 4.85 0.00 -0.423 -0.423 -0.422 -0.420 -0.415 10.72730 10.68975-12.97798   0.215
 4.85 0.50 -0.420 -0.420 -0.419 -0.417 -0.411 11.22711 11.18977-12.47782   0.382
 4.85 1.00 -0.415 -0.415 -0.414 -0.412 -0.406 11.72722 11.68984-11.97798   0.680
 4.85 1.25 -0.412 -0.412 -0.411 -0.409 -0.402 11.97717 11.93981-11.72792   0.906
 4.85 1.50 -0.408 -0.408 -0.407 -0.405 -0.398 12.22712 12.18977-11.47782   1.208
 4.85 1.75 -0.403 -0.403 -0.402 -0.400 -0.392 12.47717 12.43981-11.22769   1.611
 4.85 2.00 -0.398 -0.397 -0.397 -0.394 -0.386 12.72722 12.68984-10.97757   2.149
 4.85 2.25 -0.390 -0.390 -0.389 -0.386 -0.377 12.97717 12.93981-10.72769   2.866
 4.85 2.50 -0.382 -0.381 -0.380 -0.377 -0.368 13.22712 13.18977-10.47782   3.821
 4.85 2.75 -0.372 -0.372 -0.371 -0.367 -0.357 13.47713 13.43985-10.22769   5.095
 4.85 3.00 -0.360 -0.360 -0.359 -0.355 -0.343 13.72713 13.68993 -9.97757   6.794
 4.85 3.20 -0.349 -0.349 -0.347 -0.343 -0.331 13.92713 13.88999 -9.77762   8.552
 4.85 3.40 -0.335 -0.335 -0.334 -0.329 -0.317 14.12712 14.09003 -9.57766  10.765
 4.85 3.60 -0.317 -0.317 -0.316 -0.311 -0.298 14.32709 14.29007 -9.37767  13.551
 4.85 3.80 -0.294 -0.293 -0.292 -0.287 -0.273 14.52703 14.49009 -9.17762  17.058
 4.85 4.00 -0.263 -0.262 -0.261 -0.256 -0.241 14.72697 14.69011 -8.97757  21.473
 4.85 4.20 -0.220 -0.219 -0.218 -0.212 -0.197 14.92693 14.89009 -8.77752  27.029
 4.85 4.40 -0.165 -0.165 -0.163 -0.157 -0.141 15.12688 15.09006 -8.57746  34.022
 4.85 4.60 -0.095 -0.095 -0.093 -0.086 -0.069 15.32683 15.29012 -8.37737  42.824
 4.85 4.80 -0.007 -0.007 -0.005  0.002  0.020 15.52678 15.49024 -8.17727  53.903
 4.85 5.00  0.096  0.096  0.099  0.106  0.127 15.72673 15.69037 -7.97716  67.847
 4.85 5.20  0.221  0.222  0.225  0.233  0.254 15.92657 15.89047 -7.77706  85.386
 4.85 5.40  0.363  0.364  0.366  0.375  0.396 16.12642 16.09056 -7.57695 107.455
 4.85 5.60  0.521  0.522  0.524  0.533  0.554 16.32629 16.29069 -7.37687 135.224
 4.85 5.80  0.694  0.695  0.697  0.705  0.726 16.52618 16.49087 -7.17681 170.165
 4.85 6.00  0.876  0.876  0.879  0.886  0.906 16.72607 16.69108 -6.97675 214.123
 4.85 6.25  1.112  1.113  1.115  1.122  1.140 16.97575 16.94137 -6.72639 285.283
 4.85 6.50  1.354  1.354  1.356  1.362  1.379 17.22531 17.19173 -6.47586 379.958
 4.85 6.75  1.596  1.597  1.598  1.604  1.618 17.47477 17.44233 -6.22519 505.779
 4.85 7.00  1.845  1.845  1.847  1.851  1.863 17.72403 17.69320 -5.97429 672.748
 4.85 7.25  2.087  2.087  2.088  2.092  2.102 17.97282 17.94445 -5.72304 893.576
 4.85 7.50  2.335  2.335  2.336  2.339  2.347 18.22116 18.19618 -5.471341185.094
 4.85 7.75  2.579  2.579  2.580  2.582  2.588 18.46889 18.44860 -5.218881568.499
 4.85 8.00  2.825  2.825  2.826  2.827  2.832 18.71609 18.70165 -4.965772072.067
 4.90-2.00 -0.433 -0.432 -0.432 -0.431 -0.427  8.67724  8.63979-15.02784   0.019
 4.90-1.50 -0.430 -0.430 -0.430 -0.428 -0.424  9.17725  9.13956-14.52783   0.034
 4.90-1.00 -0.427 -0.427 -0.427 -0.425 -0.420  9.67724  9.63979-14.02784   0.061
 4.90-0.50 -0.424 -0.424 -0.423 -0.422 -0.417 10.17725 10.13988-13.52783   0.108
 4.90 0.00 -0.421 -0.421 -0.420 -0.418 -0.413 10.67724 10.63978-13.02784   0.192
 4.90 0.50 -0.418 -0.417 -0.417 -0.415 -0.409 11.17725 11.13988-12.52783   0.341
 4.90 1.00 -0.414 -0.414 -0.414 -0.411 -0.405 11.67724 11.63979-12.02780   0.606
 4.90 1.25 -0.413 -0.412 -0.412 -0.409 -0.403 11.92725 11.88983-11.77781   0.808
 4.90 1.50 -0.410 -0.410 -0.409 -0.407 -0.400 12.17725 12.13988-11.52783   1.077
 4.90 1.75 -0.407 -0.407 -0.406 -0.404 -0.396 12.42725 12.38988-11.27779   1.436
 4.90 2.00 -0.404 -0.403 -0.403 -0.400 -0.392 12.67724 12.63988-11.02775   1.915
 4.90 2.25 -0.398 -0.398 -0.397 -0.395 -0.387 12.92725 12.88988-10.77779   2.554
 4.90 2.50 -0.392 -0.392 -0.391 -0.388 -0.379 13.17725 13.13988-10.52783   3.405
 4.90 2.75 -0.383 -0.383 -0.382 -0.379 -0.370 13.42721 13.38988-10.27777   4.541
 4.90 3.00 -0.372 -0.372 -0.371 -0.367 -0.357 13.67715 13.63988-10.02771   6.055
 4.90 3.20 -0.360 -0.360 -0.359 -0.355 -0.345 13.87707 13.83988 -9.82770   7.622
 4.90 3.40 -0.346 -0.346 -0.345 -0.341 -0.330 14.07700 14.03988 -9.62769   9.595
 4.90 3.60 -0.330 -0.329 -0.328 -0.324 -0.312 14.27696 14.23992 -9.42766  12.078
 4.90 3.80 -0.310 -0.309 -0.308 -0.304 -0.291 14.47696 14.44000 -9.22761  15.204
 4.90 4.00 -0.285 -0.285 -0.284 -0.279 -0.265 14.67697 14.64008 -9.02757  19.140
 4.90 4.20 -0.255 -0.255 -0.253 -0.248 -0.234 14.87697 14.84013 -8.82755  24.093
 4.90 4.40 -0.217 -0.216 -0.215 -0.210 -0.194 15.07696 15.04018 -8.62754  30.327
 4.90 4.60 -0.168 -0.168 -0.166 -0.160 -0.144 15.27692 15.24021 -8.42749  38.174
 4.90 4.80 -0.107 -0.106 -0.104 -0.098 -0.082 15.47685 15.44025 -8.22739  48.051
 4.90 5.00 -0.032 -0.031 -0.029 -0.023 -0.006 15.67678 15.64028 -8.02729  60.483
 4.90 5.20  0.063  0.064  0.066  0.072  0.090 15.87674 15.84037 -7.82721  76.127
 4.90 5.40  0.175  0.176  0.178  0.185  0.203 16.07669 16.04046 -7.62714  95.814
 4.90 5.60  0.307  0.307  0.309  0.316  0.335 16.27662 16.24056 -7.42704 120.587
 4.90 5.80  0.457  0.457  0.459  0.466  0.484 16.47649 16.44066 -7.22692 151.756
 4.90 6.00  0.619  0.620  0.622  0.628  0.646 16.67633 16.64078 -7.02678 190.970
 4.90 6.25  0.843  0.843  0.845  0.851  0.868 16.92607 16.89094 -6.77659 254.512
 4.90 6.50  1.077  1.078  1.079  1.085  1.101 17.17580 17.14114 -6.52637 339.151
 4.90 6.75  1.311  1.312  1.313  1.318  1.333 17.42553 17.39149 -6.27603 451.843
 4.90 7.00  1.558  1.559  1.560  1.564  1.577 17.67523 17.64197 -6.02558 601.789
 4.90 7.25  1.799  1.800  1.801  1.805  1.816 17.92463 17.89255 -5.77499 801.011
 4.90 7.50  2.045  2.045  2.046  2.050  2.059 18.17377 18.14333 -5.524181065.359
 4.90 7.75  2.285  2.286  2.286  2.289  2.297 18.42254 18.39469 -5.272851414.973
 4.90 8.00  2.530  2.530  2.531  2.533  2.539 18.67099 18.64650 -5.021091877.086
 4.95-2.00 -0.435 -0.435 -0.435 -0.434 -0.432  8.62726  8.58973-15.07785   0.017
 4.95-1.50 -0.434 -0.434 -0.434 -0.433 -0.430  9.12710  9.08955-14.57790   0.030
 4.95-1.00 -0.432 -0.432 -0.431 -0.430 -0.427  9.62726  9.58973-14.07785   0.054
 4.95-0.50 -0.429 -0.428 -0.428 -0.427 -0.423 10.12711 10.08955-13.57790   0.096
 4.95 0.00 -0.424 -0.424 -0.424 -0.422 -0.417 10.62726 10.58973-13.07785   0.171
 4.95 0.50 -0.419 -0.419 -0.418 -0.416 -0.411 11.12710 11.08991-12.57790   0.304
 4.95 1.00 -0.413 -0.413 -0.413 -0.410 -0.404 11.62726 11.58984-12.07779   0.540
 4.95 1.25 -0.411 -0.410 -0.410 -0.407 -0.400 11.87718 11.83987-11.82785   0.720
 4.95 1.50 -0.408 -0.407 -0.407 -0.404 -0.397 12.12710 12.08991-11.57790   0.960
 4.95 1.75 -0.405 -0.405 -0.404 -0.401 -0.393 12.37713 12.33987-11.32785   1.280
 4.95 2.00 -0.402 -0.401 -0.401 -0.398 -0.390 12.62716 12.58984-11.07779   1.707
 4.95 2.25 -0.398 -0.398 -0.397 -0.394 -0.386 12.87713 12.83987-10.82777   2.276
 4.95 2.50 -0.394 -0.394 -0.393 -0.390 -0.381 13.12711 13.08991-10.57774   3.035
 4.95 2.75 -0.388 -0.388 -0.387 -0.384 -0.375 13.37713 13.33993-10.32771   4.047
 4.95 3.00 -0.381 -0.381 -0.380 -0.377 -0.367 13.62716 13.58995-10.07769   5.397
 4.95 3.20 -0.373 -0.373 -0.372 -0.368 -0.359 13.82714 13.78993 -9.87771   6.794
 4.95 3.40 -0.363 -0.363 -0.362 -0.358 -0.348 14.02712 13.98991 -9.67773   8.552
 4.95 3.60 -0.350 -0.349 -0.348 -0.345 -0.334 14.22710 14.18994 -9.47771  10.766
 4.95 3.80 -0.332 -0.332 -0.331 -0.327 -0.316 14.42708 14.39000 -9.27765  13.553
 4.95 4.00 -0.312 -0.311 -0.310 -0.306 -0.294 14.62706 14.59006 -9.07759  17.061
 4.95 4.20 -0.284 -0.284 -0.283 -0.278 -0.266 14.82695 14.79000 -8.87758  21.476
 4.95 4.40 -0.252 -0.251 -0.250 -0.245 -0.232 15.02684 14.98994 -8.67758  27.033
 4.95 4.60 -0.212 -0.211 -0.210 -0.205 -0.191 15.22680 15.18998 -8.47754  34.027
 4.95 4.80 -0.163 -0.162 -0.161 -0.155 -0.140 15.42682 15.39013 -8.27746  42.833
 4.95 5.00 -0.104 -0.103 -0.101 -0.096 -0.080 15.62685 15.59029 -8.07738  53.916
 4.95 5.20 -0.031 -0.030 -0.029 -0.023 -0.006 15.82685 15.79027 -7.87733  67.863
 4.95 5.40  0.054  0.055  0.056  0.062  0.079 16.02681 15.99026 -7.67727  85.416
 4.95 5.60  0.158  0.158  0.160  0.166  0.183 16.22671 16.19033 -7.47720 107.507
 4.95 5.80  0.279  0.280  0.281  0.287  0.304 16.42658 16.39048 -7.27709 135.310
 4.95 6.00  0.416  0.416  0.418  0.424  0.440 16.62644 16.59062 -7.07696 170.298
 4.95 6.25  0.615  0.616  0.617  0.623  0.638 16.87629 16.84079 -6.82679 226.975
 4.95 6.50  0.832  0.832  0.834  0.838  0.852 17.12613 17.09096 -6.57659 302.487
 4.95 6.75  1.054  1.054  1.055  1.060  1.072 17.37591 17.34121 -6.32636 403.107
 4.95 7.00  1.294  1.294  1.295  1.299  1.311 17.62562 17.59151 -6.07608 537.137
 4.95 7.25  1.535  1.535  1.536  1.540  1.550 17.87527 17.84189 -5.82574 715.502
 4.95 7.50  1.780  1.780  1.781  1.784  1.794 18.12483 18.09237 -5.57528 952.736
 4.95 7.75  2.020  2.020  2.021  2.024  2.032 18.37418 18.34307 -5.324551267.799
 4.95 8.00  2.264  2.264  2.265  2.267  2.273 18.62335 18.59395 -5.073611686.103
 5.00-2.00 -0.436 -0.436 -0.436 -0.435 -0.433  8.57726  8.53970-15.12784   0.015
 5.00-1.50 -0.435 -0.435 -0.435 -0.434 -0.432  9.07737  9.03981-14.62783   0.027
 5.00-1.00 -0.434 -0.434 -0.434 -0.433 -0.431  9.57726  9.53970-14.12784   0.048
 5.00-0.50 -0.433 -0.433 -0.433 -0.432 -0.429 10.07737 10.03981-13.62783   0.086
 5.00 0.00 -0.431 -0.431 -0.430 -0.429 -0.426 10.57726 10.53970-13.12784   0.152
 5.00 0.50 -0.427 -0.427 -0.426 -0.425 -0.421 11.07737 11.03981-12.62782   0.271
 5.00 1.00 -0.421 -0.421 -0.421 -0.419 -0.414 11.57726 11.53983-12.12779   0.481
 5.00 1.25 -0.417 -0.417 -0.417 -0.415 -0.409 11.82732 11.78982-11.87781   0.642
 5.00 1.50 -0.413 -0.413 -0.412 -0.410 -0.404 12.07737 12.03981-11.62782   0.856
 5.00 1.75 -0.409 -0.408 -0.408 -0.406 -0.399 12.32734 12.28982-11.37781   1.141
 5.00 2.00 -0.403 -0.403 -0.403 -0.400 -0.393 12.57726 12.53983-11.12779   1.521
 5.00 2.25 -0.398 -0.398 -0.397 -0.395 -0.387 12.82713 12.78982-10.87781   2.028
 5.00 2.50 -0.393 -0.392 -0.392 -0.389 -0.380 13.07701 13.03981-10.62782   2.705
 5.00 2.75 -0.387 -0.387 -0.386 -0.383 -0.373 13.32708 13.28982-10.37778   3.607
 5.00 3.00 -0.380 -0.380 -0.379 -0.376 -0.366 13.57715 13.53983-10.12773   4.810
 5.00 3.20 -0.374 -0.374 -0.373 -0.370 -0.359 13.77709 13.73982 -9.92769   6.055
 5.00 3.40 -0.367 -0.367 -0.366 -0.362 -0.351 13.97703 13.93981 -9.72766   7.622
 5.00 3.60 -0.358 -0.358 -0.356 -0.353 -0.342 14.17701 14.13983 -9.52763   9.595
 5.00 3.80 -0.346 -0.346 -0.345 -0.341 -0.330 14.37702 14.33988 -9.32762  12.080
 5.00 4.00 -0.331 -0.331 -0.330 -0.326 -0.315 14.57703 14.53995 -9.12761  15.207
 5.00 4.20 -0.311 -0.310 -0.309 -0.305 -0.294 14.77703 14.74006 -8.92762  19.142
 5.00 4.40 -0.285 -0.285 -0.284 -0.280 -0.268 14.97701 14.94016 -8.72763  24.096
 5.00 4.60 -0.253 -0.252 -0.251 -0.247 -0.235 15.17699 15.14021 -8.52760  30.331
 5.00 4.80 -0.212 -0.211 -0.210 -0.206 -0.193 15.37696 15.34021 -8.32752  38.180
 5.00 5.00 -0.162 -0.162 -0.161 -0.156 -0.143 15.57692 15.54020 -8.12744  48.061
 5.00 5.20 -0.101 -0.100 -0.099 -0.094 -0.081 15.77681 15.74020 -7.92737  60.494
 5.00 5.40 -0.028 -0.028 -0.026 -0.021 -0.007 15.97670 15.94021 -7.72730  76.142
 5.00 5.60  0.057  0.058  0.059  0.064  0.080 16.17663 16.14028 -7.52724  95.838
 5.00 5.80  0.158  0.159  0.160  0.166  0.181 16.37660 16.34042 -7.32717 120.627
 5.00 6.00  0.274  0.275  0.276  0.282  0.297 16.57657 16.54058 -7.12709 151.825
 5.00 6.25  0.444  0.445  0.446  0.452  0.466 16.82644 16.79079 -6.87691 202.365
 5.00 6.50  0.636  0.636  0.637  0.642  0.655 17.07628 17.04100 -6.62672 269.718
 5.00 6.75  0.847  0.847  0.848  0.853  0.865 17.32610 17.29110 -6.37653 359.485
 5.00 7.00  1.065  1.065  1.066  1.070  1.081 17.57588 17.54121 -6.12633 479.104
 5.00 7.25  1.301  1.301  1.302  1.305  1.315 17.82553 17.79145 -5.87609 638.390
 5.00 7.50  1.542  1.543  1.543  1.546  1.554 18.07518 18.04179 -5.62580 850.451
 5.00 7.75  1.783  1.783  1.783  1.786  1.793 18.32484 18.29225 -5.375351132.599
 5.00 8.00  2.026  2.026  2.027  2.029  2.035 18.57449 18.54283 -5.124771507.929
 5.05-2.00 -0.434 -0.434 -0.434 -0.433 -0.431  8.52724  8.48968-15.17783   0.014
 5.05-1.50 -0.434 -0.434 -0.433 -0.433 -0.431  9.02735  8.98972-14.67799   0.024
 5.05-1.00 -0.433 -0.433 -0.433 -0.433 -0.431  9.52724  9.48982-14.17783   0.043
 5.05-0.50 -0.433 -0.433 -0.433 -0.432 -0.430 10.02735  9.98972-13.67778   0.076
 5.05 0.00 -0.432 -0.432 -0.432 -0.431 -0.429 10.52724 10.48982-13.17783   0.136
 5.05 0.50 -0.430 -0.430 -0.430 -0.429 -0.427 11.02735 10.98972-12.67778   0.241
 5.05 1.00 -0.428 -0.428 -0.427 -0.426 -0.423 11.52724 11.48982-12.17783   0.429
 5.05 1.25 -0.426 -0.426 -0.425 -0.424 -0.421 11.77730 11.73979-11.92781   0.572
 5.05 1.50 -0.423 -0.423 -0.423 -0.421 -0.418 12.02735 11.98976-11.67778   0.763
 5.05 1.75 -0.420 -0.420 -0.419 -0.418 -0.413 12.27730 12.23979-11.42777   1.017
 5.05 2.00 -0.416 -0.416 -0.415 -0.414 -0.409 12.52724 12.48982-11.17777   1.356
 5.05 2.25 -0.411 -0.410 -0.410 -0.408 -0.402 12.77730 12.73981-10.92777   1.808
 5.05 2.50 -0.404 -0.404 -0.403 -0.401 -0.395 13.02735 12.98981-10.67778   2.411
 5.05 2.75 -0.397 -0.397 -0.396 -0.393 -0.386 13.27723 13.23981-10.42777   3.215
 5.05 3.00 -0.388 -0.388 -0.387 -0.384 -0.376 13.52711 13.48982-10.17777   4.287
 5.05 3.20 -0.381 -0.380 -0.379 -0.376 -0.368 13.72703 13.68983 -9.97777   5.397
 5.05 3.40 -0.372 -0.372 -0.371 -0.367 -0.358 13.92697 13.88984 -9.77778   6.794
 5.05 3.60 -0.363 -0.362 -0.361 -0.358 -0.347 14.12698 14.08987 -9.57775   8.553
 5.05 3.80 -0.352 -0.352 -0.350 -0.347 -0.336 14.32705 14.28992 -9.37769  10.767
 5.05 4.00 -0.339 -0.339 -0.337 -0.333 -0.322 14.52711 14.48996 -9.17764  13.554
 5.05 4.20 -0.323 -0.323 -0.322 -0.318 -0.306 14.72705 14.68997 -8.97761  17.062
 5.05 4.40 -0.304 -0.303 -0.302 -0.298 -0.286 14.92698 14.88998 -8.77759  21.478
 5.05 4.60 -0.279 -0.278 -0.277 -0.273 -0.260 15.12695 15.09001 -8.57755  27.036
 5.05 4.80 -0.247 -0.247 -0.246 -0.241 -0.229 15.32697 15.29005 -8.37749  34.033
 5.05 5.00 -0.208 -0.208 -0.207 -0.202 -0.190 15.52699 15.49010 -8.17744  42.840
 5.05 5.20 -0.158 -0.158 -0.156 -0.152 -0.140 15.72698 15.69014 -7.97741  53.924
 5.05 5.40 -0.098 -0.098 -0.097 -0.092 -0.080 15.92696 15.89018 -7.77738  67.874
 5.05 5.60 -0.026 -0.025 -0.024 -0.020 -0.007 16.12687 16.09023 -7.57733  85.433
 5.05 5.80  0.060  0.061  0.062  0.067  0.079 16.32673 16.29030 -7.37726 107.534
 5.05 6.00  0.161  0.162  0.163  0.167  0.180 16.52660 16.49038 -7.17718 135.350
 5.05 6.25  0.312  0.312  0.313  0.318  0.331 16.77657 16.74053 -6.92707 180.412
 5.05 6.50  0.485  0.485  0.486  0.490  0.503 17.02653 16.99070 -6.67695 240.474
 5.05 6.75  0.680  0.681  0.682  0.686  0.697 17.27631 17.24088 -6.42674 320.531
 5.05 7.00  0.880  0.881  0.882  0.885  0.895 17.52608 17.49108 -6.17653 427.236
 5.05 7.25  1.106  1.106  1.107  1.110  1.119 17.77590 17.74128 -5.92633 569.362
 5.05 7.50  1.339  1.339  1.340  1.342  1.350 18.02572 17.99149 -5.67613 758.661
 5.05 7.75  1.575  1.575  1.576  1.578  1.584 18.27542 18.24181 -5.425791010.721
 5.05 8.00  1.815  1.815  1.816  1.817  1.823 18.52505 18.49220 -5.175351346.305
 5.10-2.00 -0.429 -0.429 -0.429 -0.428 -0.426  8.47727  8.43981-15.22783   0.012
 5.10-1.50 -0.429 -0.429 -0.429 -0.428 -0.426  8.97727  8.93972-14.72793   0.021
 5.10-1.00 -0.429 -0.429 -0.429 -0.428 -0.426  9.47727  9.43981-14.22783   0.038
 5.10-0.50 -0.429 -0.429 -0.428 -0.428 -0.426  9.97722  9.93972-13.72793   0.068
 5.10 0.00 -0.428 -0.428 -0.428 -0.428 -0.426 10.47727 10.43981-13.22783   0.121
 5.10 0.50 -0.428 -0.428 -0.428 -0.427 -0.425 10.97722 10.93972-12.72793   0.215
 5.10 1.00 -0.427 -0.427 -0.427 -0.426 -0.424 11.47727 11.43981-12.22783   0.382
 5.10 1.25 -0.426 -0.426 -0.426 -0.425 -0.423 11.72724 11.68979-11.97788   0.510
 5.10 1.50 -0.425 -0.425 -0.425 -0.424 -0.421 11.97722 11.93977-11.72793   0.680
 5.10 1.75 -0.423 -0.423 -0.423 -0.422 -0.419 12.22724 12.18979-11.47788   0.907
 5.10 2.00 -0.421 -0.421 -0.421 -0.420 -0.417 12.47727 12.43981-11.22783   1.209
 5.10 2.25 -0.419 -0.419 -0.418 -0.417 -0.414 12.72722 12.68979-10.97788   1.612
 5.10 2.50 -0.415 -0.415 -0.415 -0.414 -0.410 12.97717 12.93977-10.72793   2.149
 5.10 2.75 -0.411 -0.411 -0.410 -0.409 -0.404 13.22714 13.18978-10.47784   2.866
 5.10 3.00 -0.405 -0.405 -0.404 -0.403 -0.398 13.47712 13.43981-10.22775   3.821
 5.10 3.20 -0.399 -0.399 -0.398 -0.396 -0.390 13.67712 13.63983-10.02772   4.810
 5.10 3.40 -0.391 -0.391 -0.391 -0.388 -0.382 13.87713 13.83985 -9.82770   6.055
 5.10 3.60 -0.382 -0.382 -0.382 -0.379 -0.372 14.07713 14.03989 -9.62769   7.623
 5.10 3.80 -0.372 -0.371 -0.371 -0.368 -0.360 14.27713 14.23993 -9.42768   9.596
 5.10 4.00 -0.358 -0.358 -0.357 -0.354 -0.345 14.47712 14.43996 -9.22768  12.081
 5.10 4.20 -0.343 -0.343 -0.342 -0.338 -0.328 14.67707 14.63997 -9.02769  15.208
 5.10 4.40 -0.324 -0.324 -0.323 -0.319 -0.308 14.87702 14.83997 -8.82769  19.143
 5.10 4.60 -0.301 -0.301 -0.300 -0.296 -0.284 15.07699 15.04000 -8.62766  24.098
 5.10 4.80 -0.274 -0.274 -0.272 -0.268 -0.256 15.27698 15.24006 -8.42760  30.335
 5.10 5.00 -0.240 -0.240 -0.238 -0.234 -0.221 15.47698 15.44012 -8.22753  38.186
 5.10 5.20 -0.199 -0.199 -0.197 -0.193 -0.180 15.67691 15.64014 -8.02750  48.066
 5.10 5.40 -0.149 -0.148 -0.147 -0.143 -0.130 15.87684 15.84016 -7.82748  60.502
 5.10 5.60 -0.088 -0.087 -0.086 -0.082 -0.069 16.07678 16.04018 -7.62742  76.156
 5.10 5.80 -0.015 -0.015 -0.013 -0.009  0.002 16.27674 16.24022 -7.42733  95.858
 5.10 6.00  0.069  0.070  0.071  0.075  0.087 16.47669 16.44028 -7.22724 120.658
 5.10 6.25  0.200  0.200  0.201  0.205  0.216 16.72659 16.69038 -6.97712 160.852
 5.10 6.50  0.353  0.353  0.354  0.357  0.368 16.97649 16.94052 -6.72700 214.421
 5.10 6.75  0.533  0.534  0.535  0.538  0.548 17.22638 17.19071 -6.47687 285.810
 5.10 7.00  0.727  0.727  0.728  0.731  0.740 17.47625 17.44091 -6.22673 380.941
 5.10 7.25  0.941  0.941  0.942  0.944  0.952 17.72603 17.69109 -5.97654 507.707
 5.10 7.50  1.168  1.169  1.169  1.172  1.178 17.97580 17.94126 -5.72631 676.602
 5.10 7.75  1.399  1.399  1.400  1.402  1.408 18.22559 18.19153 -5.47603 901.571
 5.10 8.00  1.635  1.635  1.635  1.637  1.642 18.47538 18.44185 -5.225701201.213
 5.15-2.00 -0.421 -0.421 -0.420 -0.420 -0.418  8.42732  8.38970-15.27786   0.011
 5.15-1.50 -0.421 -0.421 -0.420 -0.420 -0.418  8.92727  8.88969-14.77780   0.019
 5.15-1.00 -0.421 -0.421 -0.420 -0.420 -0.418  9.42732  9.38970-14.27786   0.034
 5.15-0.50 -0.421 -0.421 -0.420 -0.420 -0.418  9.92722  9.88969-13.77780   0.061
 5.15 0.00 -0.421 -0.421 -0.420 -0.420 -0.418 10.42732 10.38970-13.27786   0.108
 5.15 0.50 -0.420 -0.420 -0.420 -0.420 -0.418 10.92722 10.88975-12.77780   0.192
 5.15 1.00 -0.420 -0.420 -0.420 -0.419 -0.418 11.42732 11.38970-12.27786   0.341
 5.15 1.25 -0.420 -0.420 -0.420 -0.419 -0.417 11.67727 11.63971-12.02783   0.455
 5.15 1.50 -0.419 -0.419 -0.419 -0.419 -0.417 11.92722 11.88975-11.77780   0.606
 5.15 1.75 -0.419 -0.419 -0.419 -0.418 -0.416 12.17718 12.13981-11.52779   0.808
 5.15 2.00 -0.418 -0.418 -0.418 -0.417 -0.415 12.42716 12.38987-11.27778   1.077
 5.15 2.25 -0.417 -0.417 -0.416 -0.416 -0.414 12.67716 12.63981-11.02779   1.436
 5.15 2.50 -0.415 -0.415 -0.415 -0.414 -0.412 12.92717 12.88975-10.77780   1.915
 5.15 2.75 -0.413 -0.413 -0.413 -0.412 -0.409 13.17717 13.13981-10.52779   2.554
 5.15 3.00 -0.410 -0.410 -0.410 -0.409 -0.406 13.42716 13.38987-10.27778   3.406
 5.15 3.20 -0.407 -0.407 -0.407 -0.406 -0.402 13.62714 13.58985-10.07779   4.288
 5.15 3.40 -0.403 -0.403 -0.403 -0.402 -0.398 13.82712 13.78982 -9.87780   5.398
 5.15 3.60 -0.398 -0.398 -0.398 -0.396 -0.392 14.02712 13.98982 -9.67779   6.795
 5.15 3.80 -0.392 -0.391 -0.391 -0.389 -0.385 14.22714 14.18985 -9.47775   8.554
 5.15 4.00 -0.383 -0.383 -0.383 -0.381 -0.375 14.42716 14.38988 -9.27770  10.768
 5.15 4.20 -0.372 -0.372 -0.371 -0.369 -0.363 14.62712 14.58989 -9.07764  13.555
 5.15 4.40 -0.358 -0.358 -0.357 -0.355 -0.348 14.82708 14.78991 -8.87757  17.063
 5.15 4.60 -0.340 -0.340 -0.339 -0.336 -0.328 15.02705 14.98994 -8.67754  21.479
 5.15 4.80 -0.316 -0.316 -0.315 -0.312 -0.303 15.22703 15.19000 -8.47753  27.039
 5.15 5.00 -0.287 -0.286 -0.285 -0.282 -0.272 15.42700 15.39005 -8.27753  34.037
 5.15 5.20 -0.250 -0.249 -0.248 -0.245 -0.234 15.62694 15.59009 -8.07754  42.844
 5.15 5.40 -0.204 -0.204 -0.202 -0.199 -0.187 15.82689 15.79012 -7.87754  53.930
 5.15 5.60 -0.149 -0.149 -0.147 -0.143 -0.131 16.02685 15.99016 -7.67749  67.884
 5.15 5.80 -0.084 -0.083 -0.082 -0.078 -0.066 16.22684 16.19019 -7.47739  85.449
 5.15 6.00 -0.007 -0.006 -0.005 -0.001  0.011 16.42684 16.39023 -7.27728 107.558
 5.15 6.25  0.106  0.106  0.107  0.111  0.123 16.67672 16.64031 -7.02728 143.393
 5.15 6.50  0.241  0.242  0.243  0.246  0.257 16.92660 16.89042 -6.77728 191.155
 5.15 6.75  0.402  0.403  0.403  0.407  0.416 17.17648 17.14059 -6.52704 254.809
 5.15 7.00  0.584  0.584  0.585  0.588  0.596 17.42635 17.39076 -6.27679 339.641
 5.15 7.25  0.780  0.780  0.781  0.783  0.791 17.67618 17.64092 -6.02665 452.696
 5.15 7.50  0.999  0.999  1.000  1.002  1.008 17.92598 17.89109 -5.77650 603.343
 5.15 7.75  1.226  1.227  1.227  1.229  1.234 18.17577 18.14134 -5.52627 804.052
 5.15 8.00  1.460  1.460  1.460  1.462  1.466 18.42554 18.39164 -5.275971071.445
 5.20-2.00 -0.408 -0.408 -0.408 -0.408 -0.406  8.37731  8.33965-15.32781   0.010
 5.20-1.50 -0.408 -0.408 -0.408 -0.408 -0.406  8.87726  8.83973-14.82798   0.017
 5.20-1.00 -0.408 -0.408 -0.408 -0.408 -0.406  9.37731  9.33965-14.32781   0.030
 5.20-0.50 -0.408 -0.408 -0.408 -0.408 -0.406  9.87726  9.83973-13.82798   0.054
 5.20 0.00 -0.408 -0.408 -0.408 -0.408 -0.406 10.37731 10.33985-13.32781   0.096
 5.20 0.50 -0.408 -0.408 -0.408 -0.408 -0.406 10.87726 10.83973-12.82798   0.171
 5.20 1.00 -0.408 -0.408 -0.408 -0.408 -0.406 11.37731 11.33985-12.32781   0.304
 5.20 1.25 -0.408 -0.408 -0.408 -0.408 -0.406 11.62725 11.58979-12.07790   0.405
 5.20 1.50 -0.408 -0.408 -0.408 -0.407 -0.406 11.87720 11.83973-11.82798   0.540
 5.20 1.75 -0.408 -0.408 -0.408 -0.407 -0.406 12.12725 12.08979-11.57790   0.720
 5.20 2.00 -0.408 -0.408 -0.407 -0.407 -0.405 12.37731 12.33985-11.32781   0.960
 5.20 2.25 -0.407 -0.407 -0.407 -0.406 -0.405 12.62725 12.58982-11.07774   1.280
 5.20 2.50 -0.406 -0.406 -0.406 -0.406 -0.404 12.87720 12.83979-10.82769   1.707
 5.20 2.75 -0.405 -0.405 -0.405 -0.405 -0.403 13.12716 13.08982-10.57775   2.277
 5.20 3.00 -0.404 -0.404 -0.404 -0.403 -0.402 13.37712 13.33985-10.32781   3.036
 5.20 3.20 -0.403 -0.403 -0.402 -0.402 -0.400 13.57713 13.53983-10.12776   3.822
 5.20 3.40 -0.401 -0.401 -0.401 -0.400 -0.398 13.77714 13.73980 -9.92771   4.810
 5.20 3.60 -0.398 -0.398 -0.398 -0.397 -0.395 13.97714 13.93980 -9.72770   6.055
 5.20 3.80 -0.395 -0.395 -0.395 -0.394 -0.391 14.17714 14.13982 -9.52771   7.623
 5.20 4.00 -0.391 -0.391 -0.390 -0.389 -0.386 14.37712 14.33985 -9.32772   9.597
 5.20 4.20 -0.384 -0.384 -0.384 -0.383 -0.379 14.57711 14.53988 -9.12771  12.081
 5.20 4.40 -0.377 -0.377 -0.376 -0.375 -0.371 14.77709 14.73990 -8.92770  15.208
 5.20 4.60 -0.366 -0.366 -0.365 -0.364 -0.359 14.97709 14.93994 -8.72768  19.145
 5.20 4.80 -0.351 -0.351 -0.351 -0.349 -0.343 15.17711 15.14000 -8.52766  24.100
 5.20 5.00 -0.332 -0.332 -0.331 -0.329 -0.323 15.37712 15.34005 -8.32763  30.339
 5.20 5.20 -0.305 -0.305 -0.305 -0.302 -0.295 15.57704 15.54005 -8.12753  38.190
 5.20 5.40 -0.271 -0.271 -0.270 -0.267 -0.260 15.77695 15.74005 -7.92744  48.072
 5.20 5.60 -0.226 -0.226 -0.225 -0.223 -0.214 15.97688 15.94008 -7.72739  60.511
 5.20 5.80 -0.170 -0.170 -0.169 -0.166 -0.157 16.17681 16.14017 -7.52737  76.169
 5.20 6.00 -0.101 -0.101 -0.100 -0.096 -0.086 16.37676 16.34025 -7.32735  95.879
 5.20 6.25  0.002  0.003  0.004  0.007  0.018 16.62672 16.59030 -7.07723 127.825
 5.20 6.50  0.129  0.130  0.131  0.134  0.145 16.87668 16.84036 -6.82711 170.409
 5.20 6.75  0.277  0.277  0.278  0.281  0.292 17.12654 17.09050 -6.57704 227.178
 5.20 7.00  0.446  0.447  0.448  0.451  0.460 17.37640 17.34064 -6.32698 302.849
 5.20 7.25  0.627  0.628  0.628  0.631  0.639 17.62625 17.59078 -6.07675 403.647
 5.20 7.50  0.834  0.834  0.835  0.837  0.844 17.87610 17.84092 -5.82652 537.973
 5.20 7.75  1.053  1.053  1.053  1.055  1.061 18.12597 18.09115 -5.57636 716.988
 5.20 8.00  1.279  1.279  1.279  1.281  1.285 18.37585 18.34144 -5.32624 955.547
 5.25-2.00 -0.390 -0.390 -0.390 -0.389 -0.388  8.32736  8.28981-15.37789   0.009
 5.25-1.50 -0.390 -0.390 -0.390 -0.389 -0.388  8.82724  8.78972-14.87778   0.015
 5.25-1.00 -0.390 -0.390 -0.390 -0.389 -0.388  9.32736  9.28981-14.37789   0.027
 5.25-0.50 -0.390 -0.390 -0.390 -0.389 -0.388  9.82724  9.78972-13.87778   0.048
 5.25 0.00 -0.390 -0.390 -0.390 -0.389 -0.388 10.32736 10.28981-13.37789   0.086
 5.25 0.50 -0.390 -0.390 -0.390 -0.389 -0.388 10.82724 10.78972-12.87778   0.152
 5.25 1.00 -0.390 -0.390 -0.390 -0.389 -0.388 11.32736 11.28981-12.37779   0.271
 5.25 1.25 -0.390 -0.390 -0.390 -0.389 -0.388 11.57730 11.53977-12.12779   0.361
 5.25 1.50 -0.390 -0.390 -0.390 -0.389 -0.388 11.82724 11.78972-11.87778   0.481
 5.25 1.75 -0.390 -0.390 -0.389 -0.389 -0.388 12.07719 12.03977-11.62779   0.642
 5.25 2.00 -0.390 -0.390 -0.389 -0.389 -0.388 12.32716 12.28981-11.37779   0.856
 5.25 2.25 -0.389 -0.389 -0.389 -0.389 -0.387 12.57717 12.53980-11.12779   1.141
 5.25 2.50 -0.389 -0.389 -0.389 -0.389 -0.387 12.82718 12.78979-10.87778   1.521
 5.25 2.75 -0.389 -0.389 -0.389 -0.388 -0.387 13.07717 13.03980-10.62779   2.029
 5.25 3.00 -0.388 -0.388 -0.388 -0.388 -0.386 13.32715 13.28981-10.37779   2.706
 5.25 3.20 -0.388 -0.388 -0.388 -0.387 -0.385 13.52716 13.48980-10.17779   3.406
 5.25 3.40 -0.387 -0.387 -0.387 -0.386 -0.385 13.72717 13.68980 -9.97779   4.288
 5.25 3.60 -0.386 -0.386 -0.385 -0.385 -0.383 13.92717 13.88979 -9.77776   5.398
 5.25 3.80 -0.384 -0.384 -0.384 -0.383 -0.381 14.12717 14.08980 -9.57772   6.795
 5.25 4.00 -0.382 -0.382 -0.382 -0.381 -0.379 14.32716 14.28981 -9.37768   8.554
 5.25 4.20 -0.378 -0.378 -0.378 -0.377 -0.375 14.52714 14.48983 -9.17772  10.768
 5.25 4.40 -0.374 -0.374 -0.374 -0.373 -0.371 14.72712 14.68985 -8.97776  13.555
 5.25 4.60 -0.368 -0.368 -0.368 -0.367 -0.364 14.92712 14.88990 -8.77774  17.064
 5.25 4.80 -0.359 -0.359 -0.359 -0.358 -0.355 15.12714 15.08997 -8.57766  21.481
 5.25 5.00 -0.348 -0.348 -0.348 -0.347 -0.343 15.32715 15.29003 -8.37758  27.042
 5.25 5.20 -0.332 -0.332 -0.331 -0.330 -0.326 15.52709 15.49002 -8.17752  34.040
 5.25 5.40 -0.310 -0.310 -0.309 -0.308 -0.303 15.72702 15.69001 -7.97748  42.849
 5.25 5.60 -0.280 -0.280 -0.280 -0.278 -0.273 15.92698 15.89005 -7.77743  53.937
 5.25 5.80 -0.241 -0.241 -0.240 -0.238 -0.232 16.12696 16.09016 -7.57740  67.895
 5.25 6.00 -0.190 -0.190 -0.189 -0.187 -0.181 16.32695 16.29026 -7.37737  85.465
 5.25 6.25 -0.106 -0.106 -0.105 -0.103 -0.096 16.57684 16.54027 -7.12741 113.944
 5.25 6.50  0.001  0.001  0.002  0.004  0.012 16.82672 16.79029 -6.87746 151.909
 5.25 6.75  0.135  0.135  0.136  0.139  0.147 17.07663 17.04037 -6.62726 202.522
 5.25 7.00  0.294  0.295  0.295  0.298  0.306 17.32654 17.29048 -6.37706 269.991
 5.25 7.25  0.472  0.472  0.473  0.476  0.483 17.57642 17.54062 -6.12693 359.868
 5.25 7.50  0.666  0.666  0.667  0.669  0.676 17.82627 17.79078 -5.87680 479.654
 5.25 7.75  0.875  0.876  0.876  0.878  0.884 18.07611 18.04095 -5.62663 639.308
 5.25 8.00  1.095  1.095  1.096  1.097  1.102 18.32593 18.29115 -5.37644 852.093
 5.30-2.00 -0.364 -0.364 -0.364 -0.364 -0.362  8.27738  8.23980-15.42782   0.008
 5.30-1.50 -0.364 -0.364 -0.364 -0.364 -0.362  8.77728  8.73973-14.92775   0.014
 5.30-1.00 -0.364 -0.364 -0.364 -0.364 -0.362  9.27738  9.23980-14.42783   0.024
 5.30-0.50 -0.364 -0.364 -0.364 -0.364 -0.362  9.77721  9.73973-13.92775   0.043
 5.30 0.00 -0.364 -0.364 -0.364 -0.364 -0.362 10.27738 10.23980-13.42783   0.076
 5.30 0.50 -0.364 -0.364 -0.364 -0.364 -0.362 10.77721 10.73973-12.92775   0.136
 5.30 1.00 -0.364 -0.364 -0.364 -0.364 -0.362 11.27738 11.23980-12.42783   0.241
 5.30 1.25 -0.364 -0.364 -0.364 -0.364 -0.362 11.52730 11.48977-12.17779   0.322
 5.30 1.50 -0.364 -0.364 -0.364 -0.364 -0.362 11.77721 11.73973-11.92775   0.429
 5.30 1.75 -0.364 -0.364 -0.364 -0.364 -0.362 12.02717 11.98977-11.67779   0.572
 5.30 2.00 -0.364 -0.364 -0.364 -0.364 -0.362 12.27715 12.23980-11.42783   0.763
 5.30 2.25 -0.364 -0.364 -0.364 -0.364 -0.362 12.52718 12.48977-11.17779   1.017
 5.30 2.50 -0.364 -0.364 -0.364 -0.364 -0.362 12.77721 12.73973-10.92775   1.356
 5.30 2.75 -0.364 -0.364 -0.364 -0.363 -0.362 13.02718 12.98977-10.67779   1.808
 5.30 3.00 -0.364 -0.364 -0.364 -0.363 -0.362 13.27715 13.23980-10.42783   2.411
 5.30 3.20 -0.364 -0.364 -0.363 -0.363 -0.362 13.47714 13.43981-10.22780   3.035
 5.30 3.40 -0.363 -0.363 -0.363 -0.363 -0.361 13.67714 13.63981-10.02777   3.822
 5.30 3.60 -0.363 -0.363 -0.363 -0.362 -0.361 13.87714 13.83981 -9.82774   4.811
 5.30 3.80 -0.362 -0.362 -0.362 -0.361 -0.360 14.07715 14.03980 -9.62772   6.056
 5.30 4.00 -0.361 -0.361 -0.361 -0.360 -0.359 14.27715 14.23980 -9.42771   7.624
 5.30 4.20 -0.359 -0.359 -0.359 -0.358 -0.357 14.47715 14.43983 -9.22773   9.598
 5.30 4.40 -0.356 -0.356 -0.356 -0.356 -0.354 14.67714 14.63986 -9.02774  12.082
 5.30 4.60 -0.353 -0.353 -0.353 -0.352 -0.350 14.87714 14.83992 -8.82772  15.210
 5.30 4.80 -0.348 -0.348 -0.348 -0.347 -0.345 15.07715 15.03999 -8.62766  19.147
 5.30 5.00 -0.341 -0.341 -0.341 -0.340 -0.338 15.27715 15.24005 -8.42759  24.103
 5.30 5.20 -0.331 -0.331 -0.330 -0.330 -0.327 15.47709 15.44002 -8.22766  30.341
 5.30 5.40 -0.317 -0.317 -0.317 -0.316 -0.313 15.67702 15.63999 -8.02772  38.193
 5.30 5.60 -0.298 -0.298 -0.298 -0.297 -0.294 15.87698 15.83998 -7.82770  48.077
 5.30 5.80 -0.272 -0.272 -0.272 -0.271 -0.267 16.07695 16.04000 -7.62759  60.520
 5.30 6.00 -0.238 -0.238 -0.238 -0.236 -0.232 16.27692 16.24005 -7.42748  76.182
 5.30 6.25 -0.179 -0.179 -0.178 -0.177 -0.172 16.52685 16.49011 -7.17743 101.569
 5.30 6.50 -0.099 -0.099 -0.098 -0.097 -0.092 16.77677 16.74021 -6.92738 135.414
 5.30 6.75  0.006  0.007  0.007  0.009  0.014 17.02673 16.99038 -6.67726 180.537
 5.30 7.00  0.139  0.140  0.140  0.142  0.148 17.27669 17.24055 -6.42713 240.691
 5.30 7.25  0.301  0.301  0.301  0.303  0.309 17.52657 17.49058 -6.17707 320.860
 5.30 7.50  0.479  0.479  0.480  0.482  0.488 17.77641 17.74060 -5.92702 427.702
 5.30 7.75  0.681  0.681  0.682  0.683  0.689 18.02622 17.99078 -5.67683 570.076
 5.30 8.00  0.896  0.896  0.897  0.898  0.903 18.27600 18.24105 -5.42655 759.785
