 ROSSELAND MASS ABSORPTION COEFFICIENTS [-2.5]
 logT logP  0km/s  1km/s  2km/s  4km/s  8km/s  log Ne   log Na  log rho IPloCM-1
 3.32-2.00 -6.260 -6.255 -6.245 -6.225 -6.200  3.21139 10.54033-13.13395   0.001
 3.32-1.50 -6.308 -6.303 -6.293 -6.274 -6.249  3.56891 11.04139-12.63302   0.001
 3.32-1.00 -6.330 -6.325 -6.315 -6.296 -6.271  3.96858 11.54419-12.13018   0.001
 3.32-0.50 -6.319 -6.314 -6.303 -6.284 -6.258  4.41263 12.05231-11.62197   0.001
 3.32 0.00 -6.280 -6.274 -6.264 -6.243 -6.215  4.88360 12.57380-11.10056   0.001
 3.32 0.50 -6.230 -6.224 -6.213 -6.192 -6.163  5.35755 13.11494-10.55956   0.002
 3.32 1.00 -6.183 -6.178 -6.168 -6.148 -6.121  5.81671 13.66829-10.00599   0.004
 3.32 1.25 -6.161 -6.156 -6.147 -6.129 -6.103  6.03795 13.94330 -9.73093   0.005
 3.32 1.50 -6.140 -6.135 -6.127 -6.110 -6.087  6.25551 14.21643 -9.45780   0.007
 3.32 1.75 -6.118 -6.113 -6.106 -6.091 -6.070  6.46947 14.48542 -9.18895   0.009
 3.32 2.00 -6.095 -6.091 -6.084 -6.070 -6.051  6.68278 14.75113 -8.92336   0.011
 3.32 2.25 -6.070 -6.067 -6.060 -6.048 -6.031  6.89601 15.01336 -8.66105   0.014
 3.32 2.50 -6.044 -6.041 -6.035 -6.024 -6.008  7.10857 15.27300 -8.40132   0.019
 3.32 2.75 -6.016 -6.013 -6.008 -5.998 -5.983  7.31675 15.53044 -8.14383   0.024
 3.32 3.00 -5.986 -5.984 -5.979 -5.970 -5.957  7.51970 15.78618 -7.88807   0.030
 3.32 3.20 -5.960 -5.958 -5.954 -5.946 -5.934  7.67384 15.98972 -7.68454   0.036
 3.32 3.40 -5.933 -5.931 -5.928 -5.920 -5.909  7.82213 16.19260 -7.48168   0.042
 3.32 3.60 -5.905 -5.903 -5.900 -5.894 -5.883  7.96384 16.39489 -7.27943   0.050
 3.32 3.80 -5.875 -5.873 -5.871 -5.865 -5.856  8.10016 16.59677 -7.07760   0.058
 3.32 4.00 -5.842 -5.841 -5.838 -5.833 -5.825  8.23223 16.79824 -6.87615   0.068
 3.32 4.20 -5.810 -5.809 -5.807 -5.802 -5.794  8.35989 16.99933 -6.67499   0.079
 3.32 4.40 -5.776 -5.774 -5.772 -5.767 -5.759  8.48654 17.20022 -6.47405   0.091
 3.32 4.60 -5.737 -5.736 -5.734 -5.728 -5.720  8.61221 17.40096 -6.27331   0.105
 3.32 4.80 -5.694 -5.693 -5.691 -5.685 -5.677  8.73765 17.60159 -6.07271   0.122
 3.32 5.00 -5.646 -5.645 -5.643 -5.637 -5.629  8.86308 17.80209 -5.87225   0.141
 3.32 5.20 -5.592 -5.591 -5.589 -5.584 -5.575  8.99070 18.00238 -5.67192   0.163
 3.32 5.40 -5.532 -5.531 -5.529 -5.524 -5.515  9.11954 18.20264 -5.47163   0.189
 3.32 5.60 -5.464 -5.463 -5.461 -5.456 -5.448  9.25017 18.40289 -5.27138   0.220
 3.32 5.80 -5.386 -5.385 -5.383 -5.378 -5.370  9.38169 18.60312 -5.07115   0.256
 3.32 6.00 -5.293 -5.292 -5.290 -5.286 -5.278  9.51322 18.80332 -4.87096   0.297
 3.32 6.25 -5.149 -5.149 -5.147 -5.143 -5.136  9.67543 19.05350 -4.62087   0.358
 3.32 6.50 -4.960 -4.959 -4.957 -4.954 -4.948  9.83512 19.30363 -4.37080   0.431
 3.32 6.75 -4.703 -4.703 -4.701 -4.698 -4.694  9.98907 19.55368 -4.12071   0.514
 3.32 7.00 -4.520 -4.520 -4.519 -4.516 -4.512 10.13830 19.80373 -3.87063   0.610
 3.32 7.25 -4.410 -4.409 -4.408 -4.406 -4.403 10.28239 20.05379 -3.62060   0.720
 3.32 7.50 -4.297 -4.296 -4.295 -4.294 -4.290 10.42243 20.30384 -3.37059   0.847
 3.32 7.75 -4.181 -4.181 -4.180 -4.178 -4.176 10.55918 20.55387 -3.12060   0.991
 3.32 8.00 -4.063 -4.063 -4.062 -4.061 -4.058 10.69241 20.80387 -2.87063   1.155
 3.34-2.00 -6.094 -6.088 -6.077 -6.056 -6.029  3.49038 10.51996-13.15434   0.001
 3.34-1.50 -6.152 -6.147 -6.136 -6.115 -6.087  3.82066 11.02036-12.65404   0.001
 3.34-1.00 -6.198 -6.192 -6.181 -6.161 -6.133  4.15806 11.52114-12.15317   0.001
 3.34-0.50 -6.214 -6.208 -6.197 -6.176 -6.147  4.52388 12.02366-11.65053   0.001
 3.34 0.00 -6.186 -6.179 -6.168 -6.146 -6.116  4.93571 12.53199-11.14237   0.001
 3.34 0.50 -6.122 -6.116 -6.104 -6.082 -6.052  5.39182 13.05269-10.62160   0.003
 3.34 1.00 -6.054 -6.049 -6.038 -6.018 -5.991  5.86811 13.59329-10.08097   0.004
 3.34 1.25 -6.026 -6.021 -6.011 -5.993 -5.968  6.10303 13.87002 -9.80433   0.005
 3.34 1.50 -6.002 -5.998 -5.989 -5.972 -5.949  6.33445 14.14675 -9.52768   0.007
 3.34 1.75 -5.981 -5.977 -5.969 -5.953 -5.933  6.55852 14.42190 -9.25256   0.009
 3.34 2.00 -5.961 -5.957 -5.949 -5.935 -5.916  6.77743 14.69522 -8.97922   0.012
 3.34 2.25 -5.939 -5.936 -5.929 -5.916 -5.898  6.99073 14.96434 -8.71007   0.016
 3.34 2.50 -5.917 -5.913 -5.907 -5.895 -5.878  7.20194 15.23019 -8.44418   0.020
 3.34 2.75 -5.890 -5.887 -5.881 -5.870 -5.854  7.41237 15.49267 -8.18173   0.026
 3.34 3.00 -5.860 -5.857 -5.852 -5.841 -5.827  7.62107 15.75251 -7.92191   0.033
 3.34 3.20 -5.832 -5.830 -5.825 -5.815 -5.802  7.78663 15.95863 -7.71578   0.040
 3.34 3.40 -5.802 -5.800 -5.796 -5.787 -5.774  7.94986 16.16366 -7.51073   0.048
 3.34 3.60 -5.770 -5.768 -5.764 -5.757 -5.745  8.10910 16.36765 -7.30667   0.058
 3.34 3.80 -5.736 -5.735 -5.731 -5.725 -5.714  8.26216 16.57094 -7.10332   0.069
 3.34 4.00 -5.701 -5.700 -5.697 -5.692 -5.682  8.40993 16.77357 -6.90067   0.082
 3.34 4.20 -5.670 -5.669 -5.666 -5.661 -5.652  8.55059 16.97567 -6.69863   0.096
 3.34 4.40 -5.638 -5.637 -5.634 -5.629 -5.619  8.68666 17.17737 -6.49699   0.112
 3.34 4.60 -5.604 -5.603 -5.601 -5.595 -5.586  8.81776 17.37867 -6.29570   0.130
 3.34 4.80 -5.570 -5.569 -5.566 -5.561 -5.551  8.94594 17.57972 -6.09464   0.151
 3.34 5.00 -5.533 -5.532 -5.529 -5.524 -5.515  9.07225 17.78053 -5.89381   0.175
 3.34 5.20 -5.494 -5.493 -5.491 -5.485 -5.476  9.19688 17.98119 -5.69319   0.202
 3.34 5.40 -5.453 -5.452 -5.449 -5.444 -5.435  9.32150 18.18172 -5.49267   0.233
 3.34 5.60 -5.408 -5.407 -5.405 -5.399 -5.391  9.44660 18.38215 -5.29220   0.269
 3.34 5.80 -5.360 -5.359 -5.357 -5.352 -5.343  9.57277 18.58250 -5.09178   0.311
 3.34 6.00 -5.308 -5.307 -5.305 -5.300 -5.292  9.69975 18.78276 -4.89144   0.360
 3.34 6.25 -5.238 -5.237 -5.235 -5.230 -5.222  9.86068 19.03292 -4.64129   0.433
 3.34 6.50 -5.161 -5.160 -5.158 -5.154 -5.147 10.02160 19.28308 -4.39115   0.521
 3.34 6.75 -5.079 -5.079 -5.077 -5.073 -5.066 10.18092 19.53328 -4.14096   0.626
 3.34 7.00 -4.994 -4.993 -4.992 -4.988 -4.982 10.33826 19.78348 -3.89076   0.751
 3.34 7.25 -4.907 -4.906 -4.905 -4.901 -4.896 10.49052 20.03350 -3.64073   0.895
 3.34 7.50 -4.819 -4.819 -4.817 -4.814 -4.809 10.63849 20.28353 -3.39073   1.061
 3.34 7.75 -4.732 -4.731 -4.730 -4.727 -4.723 10.78187 20.53359 -3.14073   1.251
 3.34 8.00 -4.646 -4.645 -4.644 -4.641 -4.637 10.92075 20.78369 -2.89076   1.468
 3.36-2.00 -5.946 -5.939 -5.928 -5.907 -5.879  3.72965 10.49996-13.17444   0.001
 3.36-1.50 -5.995 -5.989 -5.977 -5.955 -5.927  4.08529 10.99996-12.67428   0.001
 3.36-1.00 -6.043 -6.037 -6.025 -6.003 -5.973  4.42062 11.50024-12.17406   0.001
 3.36-0.50 -6.074 -6.068 -6.056 -6.033 -6.003  4.75051 12.00130-11.67325   0.001
 3.36 0.00 -6.070 -6.063 -6.051 -6.027 -5.996  5.09447 12.50406-11.17031   0.002
 3.36 0.50 -6.023 -6.016 -6.004 -5.981 -5.950  5.47538 13.01242-10.66214   0.003
 3.36 1.00 -5.951 -5.946 -5.935 -5.915 -5.887  5.90741 13.53339-10.14086   0.004
 3.36 1.25 -5.916 -5.911 -5.901 -5.883 -5.858  6.14245 13.80201 -9.87234   0.006
 3.36 1.50 -5.884 -5.880 -5.871 -5.854 -5.831  6.37749 14.07445 -9.59998   0.008
 3.36 1.75 -5.856 -5.851 -5.843 -5.828 -5.807  6.61253 14.35116 -9.32323   0.010
 3.36 2.00 -5.830 -5.825 -5.818 -5.803 -5.784  6.84757 14.62788 -9.04648   0.013
 3.36 2.25 -5.804 -5.800 -5.793 -5.779 -5.760  7.07367 14.90292 -8.77137   0.017
 3.36 2.50 -5.777 -5.774 -5.767 -5.753 -5.735  7.29402 15.17609 -8.49812   0.022
 3.36 2.75 -5.748 -5.745 -5.739 -5.726 -5.709  7.50785 15.44513 -8.22909   0.028
 3.36 3.00 -5.717 -5.714 -5.708 -5.696 -5.680  7.71809 15.71088 -7.96337   0.036
 3.36 3.20 -5.688 -5.685 -5.680 -5.669 -5.654  7.88459 15.92086 -7.75341   0.044
 3.36 3.40 -5.657 -5.655 -5.650 -5.640 -5.626  8.04964 16.12919 -7.54508   0.053
 3.36 3.60 -5.623 -5.621 -5.616 -5.608 -5.595  8.21370 16.33597 -7.33829   0.064
 3.36 3.80 -5.586 -5.584 -5.580 -5.573 -5.561  8.37641 16.54158 -7.13265   0.077
 3.36 4.00 -5.546 -5.545 -5.542 -5.536 -5.526  8.53719 16.74609 -6.92812   0.092
 3.36 4.20 -5.511 -5.509 -5.506 -5.500 -5.490  8.69296 16.94956 -6.72467   0.110
 3.36 4.40 -5.474 -5.472 -5.470 -5.464 -5.454  8.84410 17.15240 -6.52185   0.131
 3.36 4.60 -5.436 -5.435 -5.433 -5.427 -5.417  8.98947 17.35467 -6.31957   0.155
 3.36 4.80 -5.399 -5.398 -5.395 -5.390 -5.380  9.12902 17.55657 -6.11766   0.182
 3.36 5.00 -5.360 -5.359 -5.356 -5.351 -5.342  9.26387 17.75808 -5.91614   0.213
 3.36 5.20 -5.320 -5.319 -5.317 -5.311 -5.302  9.39380 17.95923 -5.71504   0.247
 3.36 5.40 -5.278 -5.277 -5.275 -5.269 -5.261  9.52141 18.16016 -5.51413   0.286
 3.36 5.60 -5.233 -5.232 -5.230 -5.225 -5.216  9.64638 18.36091 -5.31337   0.331
 3.36 5.80 -5.185 -5.184 -5.182 -5.177 -5.169  9.77049 18.56153 -5.11272   0.381
 3.36 6.00 -5.133 -5.132 -5.130 -5.125 -5.117  9.89459 18.76200 -4.91222   0.440
 3.36 6.25 -5.062 -5.061 -5.059 -5.054 -5.047 10.05017 19.01237 -4.66189   0.526
 3.36 6.50 -4.983 -4.982 -4.980 -4.976 -4.970 10.20629 19.26269 -4.41162   0.630
 3.36 6.75 -4.898 -4.897 -4.895 -4.891 -4.885 10.36423 19.51300 -4.16137   0.756
 3.36 7.00 -4.806 -4.805 -4.804 -4.800 -4.794 10.52218 19.76328 -3.91116   0.907
 3.36 7.25 -4.710 -4.710 -4.708 -4.705 -4.700 10.67850 20.01334 -3.66097   1.086
 3.36 7.50 -4.613 -4.613 -4.611 -4.608 -4.604 10.83289 20.26340 -3.41083   1.297
 3.36 7.75 -4.517 -4.517 -4.515 -4.513 -4.509 10.98267 20.51351 -3.16078   1.541
 3.36 8.00 -4.423 -4.422 -4.421 -4.419 -4.415 11.12872 20.76365 -2.91080   1.823
 3.38-2.00 -5.829 -5.823 -5.812 -5.790 -5.762  3.88666 10.47986-13.19443   0.001
 3.38-1.50 -5.862 -5.856 -5.844 -5.822 -5.794  4.28937 10.97987-12.69443   0.001
 3.38-1.00 -5.899 -5.892 -5.880 -5.858 -5.828  4.66162 11.48001-12.19430   0.001
 3.38-0.50 -5.929 -5.922 -5.910 -5.886 -5.856  5.00732 11.98028-11.69400   0.002
 3.38 0.00 -5.935 -5.928 -5.915 -5.891 -5.860  5.33826 12.48130-11.19301   0.002
 3.38 0.50 -5.906 -5.900 -5.888 -5.865 -5.834  5.67117 12.98430-10.69016   0.003
 3.38 1.00 -5.850 -5.845 -5.834 -5.814 -5.787  6.02857 13.49318-10.18118   0.005
 3.38 1.25 -5.817 -5.812 -5.802 -5.783 -5.759  6.22528 13.75227 -9.92206   0.006
 3.38 1.50 -5.783 -5.778 -5.769 -5.752 -5.729  6.43425 14.01536 -9.65896   0.008
 3.38 1.75 -5.747 -5.743 -5.734 -5.718 -5.697  6.65941 14.28468 -9.38966   0.011
 3.38 2.00 -5.712 -5.707 -5.699 -5.684 -5.664  6.88975 14.55763 -9.11674   0.014
 3.38 2.25 -5.676 -5.671 -5.663 -5.649 -5.629  7.12403 14.83445 -8.83997   0.018
 3.38 2.50 -5.639 -5.635 -5.628 -5.613 -5.594  7.35832 15.11126 -8.56320   0.023
 3.38 2.75 -5.602 -5.598 -5.591 -5.577 -5.559  7.58515 15.38608 -8.28835   0.030
 3.38 3.00 -5.564 -5.560 -5.554 -5.541 -5.523  7.80645 15.65877 -8.01556   0.039
 3.38 3.20 -5.531 -5.528 -5.522 -5.511 -5.494  7.97823 15.87386 -7.80045   0.047
 3.38 3.40 -5.498 -5.495 -5.490 -5.479 -5.464  8.14710 16.08685 -7.58746   0.057
 3.38 3.60 -5.462 -5.460 -5.455 -5.446 -5.432  8.31321 16.29765 -7.37672   0.069
 3.38 3.80 -5.424 -5.422 -5.419 -5.411 -5.398  8.47742 16.50660 -7.16785   0.084
 3.38 4.00 -5.384 -5.383 -5.380 -5.373 -5.362  8.63988 16.71391 -6.96059   0.101
 3.38 4.20 -5.347 -5.346 -5.343 -5.336 -5.326  8.80165 16.91977 -6.75463   0.122
 3.38 4.40 -5.307 -5.306 -5.303 -5.297 -5.287  8.96144 17.12458 -6.54974   0.147
 3.38 4.60 -5.265 -5.264 -5.261 -5.255 -5.246  9.11859 17.32842 -6.34594   0.176
 3.38 4.80 -5.222 -5.221 -5.218 -5.213 -5.203  9.27148 17.53157 -6.14289   0.210
 3.38 5.00 -5.177 -5.176 -5.173 -5.168 -5.159  9.42029 17.73408 -5.94044   0.249
 3.38 5.20 -5.131 -5.130 -5.128 -5.123 -5.114  9.56258 17.93605 -5.73840   0.294
 3.38 5.40 -5.084 -5.083 -5.081 -5.076 -5.067  9.70023 18.13764 -5.53673   0.344
 3.38 5.60 -5.035 -5.034 -5.032 -5.027 -5.019  9.83278 18.33888 -5.33547   0.401
 3.38 5.80 -4.983 -4.982 -4.980 -4.975 -4.967  9.96177 18.53988 -5.13447   0.465
 3.38 6.00 -4.928 -4.927 -4.925 -4.920 -4.913 10.08814 18.74068 -4.93367   0.538
 3.38 6.25 -4.854 -4.853 -4.851 -4.847 -4.840 10.24278 18.99146 -4.68288   0.642
 3.38 6.50 -4.773 -4.772 -4.771 -4.767 -4.760 10.39707 19.24205 -4.43227   0.767
 3.38 6.75 -4.687 -4.686 -4.684 -4.681 -4.675 10.55117 19.49247 -4.18179   0.916
 3.38 7.00 -4.594 -4.593 -4.592 -4.589 -4.583 10.70527 19.74280 -3.93144   1.094
 3.38 7.25 -4.497 -4.496 -4.495 -4.492 -4.487 10.86031 19.99308 -3.68127   1.308
 3.38 7.50 -4.396 -4.396 -4.394 -4.392 -4.387 11.01536 20.24329 -3.43109   1.563
 3.38 7.75 -4.295 -4.295 -4.294 -4.291 -4.287 11.16818 20.49343 -3.18090   1.864
 3.38 8.00 -4.196 -4.195 -4.194 -4.192 -4.188 11.31952 20.74351 -2.93070   2.219
 3.40-2.00 -5.742 -5.736 -5.724 -5.702 -5.675  3.97021 10.45984-13.21446   0.001
 3.40-1.50 -5.760 -5.753 -5.742 -5.719 -5.691  4.41280 10.95985-12.71444   0.001
 3.40-1.00 -5.781 -5.775 -5.763 -5.740 -5.711  4.83085 11.46000-12.21439   0.001
 3.40-0.50 -5.800 -5.794 -5.781 -5.758 -5.729  5.21958 11.96000-11.71444   0.002
 3.40 0.00 -5.805 -5.798 -5.786 -5.762 -5.732  5.57864 12.46045-11.21396   0.003
 3.40 0.50 -5.784 -5.778 -5.766 -5.743 -5.714  5.91551 12.96147-10.71287   0.004
 3.40 1.00 -5.739 -5.733 -5.722 -5.702 -5.676  6.24502 13.46494-10.20943   0.006
 3.40 1.25 -5.709 -5.703 -5.693 -5.675 -5.651  6.41409 13.71868 -9.95563   0.007
 3.40 1.50 -5.676 -5.671 -5.661 -5.644 -5.621  6.58827 13.97460 -9.69962   0.009
 3.40 1.75 -5.639 -5.634 -5.625 -5.609 -5.587  6.77405 14.23463 -9.43964   0.012
 3.40 2.00 -5.600 -5.595 -5.586 -5.570 -5.550  6.97123 14.49886 -9.17549   0.015
 3.40 2.25 -5.557 -5.553 -5.544 -5.529 -5.508  7.18525 14.76929 -8.90502   0.019
 3.40 2.50 -5.512 -5.508 -5.500 -5.485 -5.464  7.40773 15.04297 -8.63134   0.024
 3.40 2.75 -5.464 -5.460 -5.453 -5.439 -5.419  7.63833 15.31984 -8.35452   0.031
 3.40 3.00 -5.415 -5.412 -5.405 -5.392 -5.374  7.86894 15.59671 -8.07769   0.041
 3.40 3.20 -5.375 -5.372 -5.366 -5.354 -5.337  8.04967 15.81640 -7.85800   0.050
 3.40 3.40 -5.335 -5.332 -5.327 -5.317 -5.301  8.22751 16.03453 -7.63985   0.062
 3.40 3.60 -5.294 -5.292 -5.288 -5.278 -5.264  8.40152 16.25051 -7.42388   0.075
 3.40 3.80 -5.253 -5.251 -5.247 -5.239 -5.226  8.57152 16.46395 -7.21048   0.091
 3.40 4.00 -5.210 -5.208 -5.205 -5.198 -5.188  8.73838 16.67532 -6.99913   0.111
 3.40 4.20 -5.170 -5.168 -5.165 -5.159 -5.149  8.90241 16.88462 -6.78981   0.134
 3.40 4.40 -5.127 -5.126 -5.123 -5.117 -5.108  9.06437 17.09235 -6.58204   0.161
 3.40 4.60 -5.083 -5.081 -5.079 -5.073 -5.064  9.22481 17.29854 -6.37578   0.194
 3.40 4.80 -5.036 -5.034 -5.032 -5.027 -5.018  9.38365 17.50360 -6.17066   0.233
 3.40 5.00 -4.985 -4.984 -4.982 -4.977 -4.968  9.54033 17.70766 -5.96658   0.280
 3.40 5.20 -4.933 -4.932 -4.930 -4.925 -4.916  9.69379 17.91086 -5.76342   0.334
 3.40 5.40 -4.878 -4.877 -4.875 -4.870 -4.862  9.84349 18.11349 -5.56085   0.396
 3.40 5.60 -4.820 -4.820 -4.817 -4.813 -4.805  9.98841 18.31558 -5.35885   0.468
 3.40 5.80 -4.761 -4.760 -4.758 -4.754 -4.747 10.12802 18.51730 -5.15719   0.550
 3.40 6.00 -4.700 -4.699 -4.697 -4.693 -4.686 10.26316 18.71867 -4.95585   0.643
 3.40 6.25 -4.620 -4.619 -4.618 -4.614 -4.607 10.42554 18.96994 -4.70448   0.775
 3.40 6.50 -4.537 -4.536 -4.534 -4.531 -4.525 10.58354 19.22089 -4.45346   0.929
 3.40 6.75 -4.449 -4.449 -4.447 -4.444 -4.438 10.73770 19.47159 -4.20284   1.110
 3.40 7.00 -4.358 -4.357 -4.356 -4.353 -4.348 10.89070 19.72214 -3.95234   1.324
 3.40 7.25 -4.262 -4.262 -4.260 -4.258 -4.253 11.04292 19.97262 -3.70187   1.577
 3.40 7.50 -4.164 -4.163 -4.162 -4.160 -4.156 11.19507 20.22298 -3.45149   1.879
 3.40 7.75 -4.064 -4.064 -4.063 -4.060 -4.057 11.34719 20.47320 -3.20126   2.239
 3.40 8.00 -3.964 -3.964 -3.963 -3.961 -3.957 11.49927 20.72329 -2.95117   2.667
 3.42-2.00 -5.681 -5.674 -5.663 -5.641 -5.613  3.99401 10.43996-13.23441   0.001
 3.42-1.50 -5.683 -5.677 -5.665 -5.643 -5.615  4.47159 10.93992-12.73448   0.001
 3.42-1.00 -5.691 -5.684 -5.672 -5.650 -5.621  4.92722 11.43996-12.23441   0.001
 3.42-0.50 -5.697 -5.691 -5.679 -5.656 -5.626  5.35774 11.93997-11.73448   0.002
 3.42 0.00 -5.693 -5.687 -5.674 -5.651 -5.622  5.76125 12.44012-11.23418   0.004
 3.42 0.50 -5.670 -5.663 -5.652 -5.630 -5.602  6.13386 12.94052-10.73377   0.005
 3.42 1.00 -5.624 -5.618 -5.608 -5.588 -5.563  6.47958 13.44185-10.23247   0.008
 3.42 1.25 -5.593 -5.588 -5.578 -5.559 -5.535  6.64521 13.69333 -9.98102   0.010
 3.42 1.50 -5.559 -5.553 -5.544 -5.526 -5.503  6.81084 13.94576 -9.72862   0.012
 3.42 1.75 -5.519 -5.514 -5.505 -5.488 -5.466  6.97788 14.20019 -9.47420   0.014
 3.42 2.00 -5.477 -5.472 -5.463 -5.446 -5.424  7.14706 14.45713 -9.21724   0.017
 3.42 2.25 -5.430 -5.426 -5.417 -5.401 -5.380  7.32582 14.71841 -8.95598   0.021
 3.42 2.50 -5.382 -5.377 -5.369 -5.354 -5.333  7.51415 14.98403 -8.69037   0.027
 3.42 2.75 -5.329 -5.325 -5.318 -5.303 -5.284  7.71805 15.25601 -8.41829   0.034
 3.42 3.00 -5.274 -5.270 -5.264 -5.251 -5.233  7.93161 15.53058 -8.14369   0.043
 3.42 3.20 -5.227 -5.224 -5.218 -5.206 -5.190  8.11112 15.75204 -7.92231   0.053
 3.42 3.40 -5.178 -5.176 -5.171 -5.160 -5.145  8.29064 15.97349 -7.70093   0.065
 3.42 3.60 -5.129 -5.127 -5.122 -5.114 -5.100  8.46953 16.19399 -7.48046   0.080
 3.42 3.80 -5.079 -5.077 -5.073 -5.066 -5.054  8.64647 16.41218 -7.26223   0.097
 3.42 4.00 -5.028 -5.027 -5.024 -5.017 -5.007  8.82164 16.62859 -7.04576   0.119
 3.42 4.20 -4.980 -4.979 -4.976 -4.970 -4.961  8.99207 16.84226 -6.83210   0.145
 3.42 4.40 -4.931 -4.930 -4.928 -4.922 -4.913  9.15948 17.05390 -6.62047   0.176
 3.42 4.60 -4.881 -4.880 -4.878 -4.872 -4.864  9.32382 17.26347 -6.41090   0.213
 3.42 4.80 -4.830 -4.829 -4.826 -4.821 -4.813  9.48563 17.47137 -6.20298   0.257
 3.42 5.00 -4.775 -4.774 -4.772 -4.767 -4.759  9.64513 17.67779 -5.99654   0.308
 3.42 5.20 -4.719 -4.718 -4.716 -4.711 -4.704  9.80319 17.88294 -5.79143   0.369
 3.42 5.40 -4.659 -4.658 -4.656 -4.652 -4.645  9.95888 18.08717 -5.58722   0.442
 3.42 5.60 -4.596 -4.595 -4.594 -4.589 -4.582 10.11204 18.29051 -5.38384   0.527
 3.42 5.80 -4.531 -4.530 -4.528 -4.524 -4.517 10.26177 18.49324 -5.18103   0.627
 3.42 6.00 -4.463 -4.462 -4.460 -4.456 -4.450 10.40790 18.69539 -4.97881   0.742
 3.42 6.25 -4.376 -4.375 -4.373 -4.370 -4.364 10.58308 18.94738 -4.72677   0.908
 3.42 6.50 -4.287 -4.286 -4.285 -4.282 -4.276 10.75159 19.19893 -4.47522   1.102
 3.42 6.75 -4.197 -4.196 -4.195 -4.192 -4.187 10.91304 19.45024 -4.22398   1.327
 3.42 7.00 -4.105 -4.104 -4.103 -4.100 -4.096 11.07004 19.70122 -3.97306   1.590
 3.42 7.25 -4.012 -4.011 -4.010 -4.007 -4.003 11.22324 19.95176 -3.72243   1.897
 3.42 7.50 -3.917 -3.916 -3.915 -3.913 -3.909 11.37475 20.20222 -3.47198   2.258
 3.42 7.75 -3.821 -3.820 -3.820 -3.817 -3.814 11.52541 20.45265 -3.22164   2.686
 3.42 8.00 -3.725 -3.724 -3.723 -3.721 -3.718 11.67495 20.70303 -2.97143   3.191
 3.44-2.00 -5.638 -5.632 -5.622 -5.601 -5.574  3.98958 10.41996-13.25438   0.001
 3.44-1.50 -5.631 -5.625 -5.613 -5.591 -5.563  4.48073 10.91991-12.75449   0.001
 3.44-1.00 -5.625 -5.618 -5.606 -5.584 -5.555  4.96530 11.41996-12.25438   0.001
 3.44-0.50 -5.618 -5.611 -5.599 -5.576 -5.547  5.43217 11.91991-11.75449   0.002
 3.44 0.00 -5.603 -5.597 -5.584 -5.562 -5.533  5.87431 12.41996-11.25430   0.004
 3.44 0.50 -5.571 -5.565 -5.554 -5.532 -5.505  6.29003 12.92012-10.75424   0.006
 3.44 1.00 -5.518 -5.512 -5.501 -5.481 -5.457  6.67559 13.42062-10.25368   0.010
 3.44 1.25 -5.482 -5.477 -5.466 -5.447 -5.423  6.85645 13.67120-10.00305   0.012
 3.44 1.50 -5.442 -5.437 -5.427 -5.408 -5.385  7.03141 13.92221 -9.75203   0.015
 3.44 1.75 -5.397 -5.391 -5.382 -5.364 -5.342  7.20002 14.17408 -9.50022   0.018
 3.44 2.00 -5.348 -5.343 -5.333 -5.316 -5.294  7.36773 14.42716 -9.24726   0.022
 3.44 2.25 -5.295 -5.290 -5.281 -5.265 -5.244  7.53491 14.68240 -8.99196   0.027
 3.44 2.50 -5.239 -5.235 -5.227 -5.212 -5.192  7.70209 14.94047 -8.73377   0.032
 3.44 2.75 -5.180 -5.177 -5.170 -5.156 -5.137  7.87706 15.20356 -8.47075   0.039
 3.44 3.00 -5.120 -5.116 -5.110 -5.098 -5.081  8.05956 15.47114 -8.20329   0.049
 3.44 3.20 -5.069 -5.066 -5.060 -5.050 -5.034  8.21530 15.69014 -7.98444   0.058
 3.44 3.40 -5.016 -5.013 -5.009 -4.999 -4.985  8.37704 15.91006 -7.76456   0.070
 3.44 3.60 -4.961 -4.959 -4.954 -4.946 -4.934  8.54688 16.13089 -7.54364   0.085
 3.44 3.80 -4.903 -4.901 -4.898 -4.891 -4.880  8.72035 16.35194 -7.32246   0.104
 3.44 4.00 -4.843 -4.842 -4.839 -4.833 -4.823  8.89382 16.57299 -7.10128   0.127
 3.44 4.20 -4.786 -4.784 -4.782 -4.776 -4.767  9.06708 16.79122 -6.88306   0.155
 3.44 4.40 -4.727 -4.726 -4.723 -4.718 -4.710  9.24001 17.00752 -6.66680   0.189
 3.44 4.60 -4.668 -4.667 -4.664 -4.659 -4.651  9.41083 17.22155 -6.45281   0.230
 3.44 4.80 -4.608 -4.607 -4.605 -4.600 -4.593  9.57784 17.43328 -6.24107   0.279
 3.44 5.00 -4.548 -4.547 -4.545 -4.540 -4.533  9.74218 17.64306 -6.03128   0.337
 3.44 5.20 -4.486 -4.486 -4.484 -4.480 -4.472  9.90369 17.85092 -5.82341   0.406
 3.44 5.40 -4.424 -4.423 -4.421 -4.417 -4.410 10.06280 18.05742 -5.61689   0.488
 3.44 5.60 -4.358 -4.358 -4.356 -4.352 -4.346 10.21983 18.26266 -5.41166   0.584
 3.44 5.80 -4.291 -4.290 -4.288 -4.285 -4.279 10.37468 18.46699 -5.20736   0.698
 3.44 6.00 -4.220 -4.220 -4.218 -4.215 -4.209 10.52699 18.67043 -5.00393   0.832
 3.44 6.25 -4.129 -4.129 -4.127 -4.124 -4.119 10.71310 18.92364 -4.75062   1.030
 3.44 6.50 -4.036 -4.036 -4.034 -4.031 -4.026 10.89365 19.17609 -4.49812   1.268
 3.44 6.75 -3.942 -3.942 -3.941 -3.938 -3.933 11.06666 19.42805 -4.24624   1.548
 3.44 7.00 -3.848 -3.848 -3.847 -3.844 -3.840 11.23325 19.67952 -3.99482   1.875
 3.44 7.25 -3.755 -3.755 -3.754 -3.751 -3.747 11.39306 19.93049 -3.74377   2.254
 3.44 7.50 -3.662 -3.662 -3.661 -3.658 -3.655 11.54839 20.18127 -3.49295   2.695
 3.44 7.75 -3.569 -3.569 -3.568 -3.566 -3.563 11.70067 20.43196 -3.24230   3.212
 3.44 8.00 -3.477 -3.477 -3.476 -3.474 -3.471 11.84942 20.68251 -2.99183   3.812
 3.46-2.00 -5.585 -5.580 -5.571 -5.554 -5.532  4.02938 10.39985-13.27442   0.001
 3.46-1.50 -5.588 -5.583 -5.573 -5.553 -5.527  4.48813 10.89988-12.77443   0.001
 3.46-1.00 -5.579 -5.573 -5.562 -5.540 -5.512  4.96970 11.39985-12.27442   0.001
 3.46-0.50 -5.561 -5.555 -5.543 -5.521 -5.492  5.45515 11.89988-11.77443   0.002
 3.46 0.00 -5.534 -5.528 -5.516 -5.493 -5.465  5.92973 12.39985-11.27442   0.004
 3.46 0.50 -5.492 -5.486 -5.474 -5.453 -5.426  6.38202 12.89998-10.77443   0.007
 3.46 1.00 -5.428 -5.422 -5.411 -5.392 -5.367  6.80814 13.40019-10.27417   0.011
 3.46 1.25 -5.386 -5.380 -5.370 -5.351 -5.327  7.01040 13.65042-10.02387   0.014
 3.46 1.50 -5.338 -5.333 -5.323 -5.304 -5.281  7.20520 13.90081 -9.77340   0.018
 3.46 1.75 -5.284 -5.279 -5.270 -5.252 -5.230  7.39173 14.15160 -9.52267   0.022
 3.46 2.00 -5.226 -5.221 -5.212 -5.195 -5.174  7.57159 14.40295 -9.27148   0.027
 3.46 2.25 -5.163 -5.158 -5.150 -5.134 -5.115  7.74431 14.65521 -9.01922   0.033
 3.46 2.50 -5.096 -5.092 -5.084 -5.070 -5.052  7.91440 14.90886 -8.76548   0.040
 3.46 2.75 -5.025 -5.021 -5.015 -5.002 -4.985  8.08241 15.16536 -8.50896   0.049
 3.46 3.00 -4.951 -4.948 -4.943 -4.932 -4.917  8.25042 15.42521 -8.24911   0.059
 3.46 3.20 -4.891 -4.888 -4.883 -4.874 -4.860  8.38873 15.63709 -8.03726   0.069
 3.46 3.40 -4.830 -4.828 -4.823 -4.815 -4.803  8.53063 15.85179 -7.82260   0.082
 3.46 3.60 -4.768 -4.766 -4.763 -4.755 -4.744  8.67791 16.07050 -7.60390   0.097
 3.46 3.80 -4.706 -4.704 -4.701 -4.694 -4.684  8.83173 16.29112 -7.38325   0.116
 3.46 4.00 -4.641 -4.640 -4.637 -4.632 -4.623  8.99069 16.51175 -7.16260   0.139
 3.46 4.20 -4.577 -4.576 -4.574 -4.569 -4.561  9.15685 16.73232 -6.94199   0.168
 3.46 4.40 -4.512 -4.511 -4.509 -4.504 -4.496  9.32407 16.95277 -6.72144   0.203
 3.46 4.60 -4.445 -4.444 -4.442 -4.438 -4.431  9.49229 17.17181 -6.50237   0.247
 3.46 4.80 -4.379 -4.378 -4.376 -4.372 -4.365  9.66073 17.38796 -6.28631   0.300
 3.46 5.00 -4.312 -4.311 -4.309 -4.305 -4.299  9.82917 17.60206 -6.07232   0.364
 3.46 5.20 -4.245 -4.244 -4.242 -4.239 -4.232  9.99450 17.81359 -5.86082   0.440
 3.46 5.40 -4.177 -4.177 -4.175 -4.172 -4.166 10.15772 18.02328 -5.65114   0.531
 3.46 5.60 -4.110 -4.109 -4.107 -4.104 -4.098 10.31864 18.23113 -5.44326   0.639
 3.46 5.80 -4.041 -4.040 -4.039 -4.035 -4.030 10.47703 18.43761 -5.23674   0.767
 3.46 6.00 -3.971 -3.970 -3.969 -3.966 -3.960 10.63306 18.64286 -5.03147   0.918
 3.46 6.25 -3.880 -3.880 -3.879 -3.876 -3.871 10.82505 18.89804 -4.77635   1.145
 3.46 6.50 -3.788 -3.787 -3.786 -3.783 -3.779 11.01284 19.15198 -4.52245   1.422
 3.46 6.75 -3.693 -3.692 -3.691 -3.689 -3.685 11.19578 19.40488 -4.26951   1.755
 3.46 7.00 -3.597 -3.597 -3.596 -3.593 -3.590 11.37310 19.65706 -4.01728   2.153
 3.46 7.25 -3.502 -3.502 -3.501 -3.499 -3.496 11.54312 19.90863 -3.76557   2.618
 3.46 7.50 -3.409 -3.409 -3.408 -3.406 -3.403 11.70689 20.15987 -3.51428   3.161
 3.46 7.75 -3.317 -3.317 -3.316 -3.314 -3.311 11.86492 20.41091 -3.26329   3.792
 3.46 8.00 -3.228 -3.227 -3.227 -3.225 -3.222 12.01703 20.66172 -3.01265   4.518
 3.48-2.00 -5.445 -5.443 -5.438 -5.428 -5.415  4.27646 10.37967-13.29474   0.001
 3.48-1.50 -5.497 -5.494 -5.486 -5.473 -5.454  4.62511 10.87955-12.79480   0.001
 3.48-1.00 -5.521 -5.516 -5.507 -5.489 -5.466  5.02572 11.37967-12.29473   0.001
 3.48-0.50 -5.516 -5.510 -5.499 -5.479 -5.453  5.47363 11.87955-11.79480   0.002
 3.48 0.00 -5.485 -5.479 -5.468 -5.446 -5.420  5.94748 12.37967-11.29474   0.004
 3.48 0.50 -5.433 -5.427 -5.416 -5.395 -5.369  6.42357 12.87961-10.79480   0.007
 3.48 1.00 -5.357 -5.352 -5.341 -5.321 -5.297  6.88394 13.37967-10.29465   0.012
 3.48 1.25 -5.309 -5.304 -5.294 -5.275 -5.251  7.10484 13.62977-10.04449   0.016
 3.48 1.50 -5.254 -5.249 -5.239 -5.221 -5.198  7.31911 13.87996 -9.79426   0.020
 3.48 1.75 -5.192 -5.187 -5.178 -5.161 -5.139  7.52633 14.13033 -9.54394   0.025
 3.48 2.00 -5.123 -5.119 -5.110 -5.094 -5.074  7.72624 14.38094 -9.29345   0.032
 3.48 2.25 -5.048 -5.043 -5.036 -5.021 -5.003  7.91801 14.63189 -9.04255   0.040
 3.48 2.50 -4.966 -4.962 -4.955 -4.942 -4.925  8.10278 14.88344 -8.79102   0.049
 3.48 2.75 -4.878 -4.875 -4.869 -4.857 -4.842  8.28000 15.13643 -8.53800   0.060
 3.48 3.00 -4.786 -4.783 -4.778 -4.768 -4.755  8.45347 15.39129 -8.28308   0.073
 3.48 3.20 -4.710 -4.707 -4.703 -4.694 -4.682  8.58952 15.59749 -8.07684   0.085
 3.48 3.40 -4.633 -4.631 -4.627 -4.620 -4.609  8.72556 15.80610 -7.86819   0.100
 3.48 3.60 -4.557 -4.555 -4.552 -4.545 -4.536  8.86255 16.01801 -7.65627   0.117
 3.48 3.80 -4.482 -4.480 -4.478 -4.472 -4.463  9.00233 16.23332 -7.44099   0.137
 3.48 4.00 -4.409 -4.408 -4.405 -4.400 -4.393  9.14457 16.45117 -7.22315   0.162
 3.48 4.20 -4.339 -4.338 -4.336 -4.332 -4.325  9.29244 16.67243 -7.00189   0.192
 3.48 4.40 -4.270 -4.270 -4.268 -4.264 -4.257  9.44434 16.89369 -6.78062   0.229
 3.48 4.60 -4.202 -4.201 -4.200 -4.196 -4.190  9.60126 17.11464 -6.55968   0.274
 3.48 4.80 -4.134 -4.133 -4.132 -4.128 -4.122  9.76141 17.33452 -6.33981   0.329
 3.48 5.00 -4.065 -4.064 -4.063 -4.060 -4.054  9.92319 17.55340 -6.12096   0.396
 3.48 5.20 -3.996 -3.996 -3.994 -3.991 -3.986 10.08632 17.76916 -5.90521   0.478
 3.48 5.40 -3.927 -3.926 -3.925 -3.922 -3.917 10.24946 17.98281 -5.69156   0.577
 3.48 5.60 -3.858 -3.857 -3.856 -3.853 -3.848 10.41192 18.19422 -5.48013   0.696
 3.48 5.80 -3.788 -3.787 -3.786 -3.783 -3.779 10.57266 18.40371 -5.27061   0.837
 3.48 6.00 -3.718 -3.717 -3.716 -3.713 -3.709 10.73199 18.61151 -5.06278   1.005
 3.48 6.25 -3.629 -3.628 -3.627 -3.624 -3.620 10.92799 18.86921 -4.80508   1.259
 3.48 6.50 -3.538 -3.538 -3.537 -3.534 -3.531 11.12057 19.12516 -4.54914   1.572
 3.48 6.75 -3.446 -3.446 -3.445 -3.442 -3.439 11.30943 19.37963 -4.29466   1.954
 3.48 7.00 -3.352 -3.352 -3.351 -3.349 -3.346 11.49388 19.63307 -4.04124   2.417
 3.48 7.25 -3.258 -3.258 -3.257 -3.255 -3.252 11.67303 19.88569 -3.78866   2.970
 3.48 7.50 -3.164 -3.164 -3.163 -3.161 -3.158 11.84640 20.13767 -3.53671   3.626
 3.48 7.75 -3.072 -3.072 -3.071 -3.069 -3.067 12.01290 20.38919 -3.28518   4.392
 3.48 8.00 -2.983 -2.983 -2.982 -2.980 -2.978 12.17289 20.64018 -3.03414   5.281
 3.50-2.00 -5.218 -5.217 -5.216 -5.213 -5.209  4.68601 10.36003-13.31444   0.001
 3.50-1.50 -5.310 -5.308 -5.305 -5.299 -5.291  4.96811 10.85992-12.81446   0.001
 3.50-1.00 -5.381 -5.378 -5.373 -5.363 -5.349  5.27416 11.36003-12.31444   0.002
 3.50-0.50 -5.423 -5.420 -5.412 -5.397 -5.378  5.61784 11.85992-11.81446   0.003
 3.50 0.00 -5.425 -5.421 -5.412 -5.394 -5.371  6.01242 12.36003-11.31444   0.004
 3.50 0.50 -5.384 -5.379 -5.369 -5.350 -5.327  6.45378 12.85992-10.81446   0.007
 3.50 1.00 -5.304 -5.299 -5.289 -5.271 -5.248  6.91897 13.36003-10.31435   0.012
 3.50 1.25 -5.252 -5.247 -5.237 -5.219 -5.197  7.15054 13.61006-10.06427   0.016
 3.50 1.50 -5.191 -5.186 -5.177 -5.159 -5.138  7.38057 13.86010 -9.81418   0.021
 3.50 1.75 -5.122 -5.118 -5.109 -5.093 -5.072  7.60388 14.11020 -9.56403   0.027
 3.50 2.00 -5.045 -5.040 -5.032 -5.017 -4.998  7.82132 14.36040 -9.31381   0.034
 3.50 2.25 -4.958 -4.954 -4.947 -4.933 -4.916  8.03181 14.61086 -9.06342   0.043
 3.50 2.50 -4.860 -4.857 -4.851 -4.839 -4.824  8.23528 14.86166 -8.81276   0.055
 3.50 2.75 -4.754 -4.751 -4.746 -4.736 -4.722  8.43094 15.11304 -8.56137   0.069
 3.50 3.00 -4.641 -4.638 -4.634 -4.625 -4.613  8.61962 15.36530 -8.30901   0.086
 3.50 3.20 -4.546 -4.544 -4.540 -4.532 -4.522  8.76476 15.56834 -8.10595   0.102
 3.50 3.40 -4.450 -4.448 -4.445 -4.438 -4.429  8.90722 15.77287 -7.90142   0.120
 3.50 3.60 -4.355 -4.353 -4.350 -4.344 -4.336  9.04657 15.97944 -7.69487   0.141
 3.50 3.80 -4.261 -4.259 -4.257 -4.252 -4.245  9.18481 16.18896 -7.48536   0.165
 3.50 4.00 -4.171 -4.169 -4.167 -4.163 -4.157  9.32305 16.40123 -7.27311   0.194
 3.50 4.20 -4.086 -4.085 -4.084 -4.080 -4.074  9.46266 16.61787 -7.05647   0.228
 3.50 4.40 -4.007 -4.007 -4.005 -4.002 -3.996  9.60376 16.83642 -6.83792   0.268
 3.50 4.60 -3.934 -3.933 -3.931 -3.928 -3.923  9.74745 17.05714 -6.61718   0.316
 3.50 4.80 -3.864 -3.863 -3.862 -3.859 -3.854  9.89477 17.27862 -6.39568   0.375
 3.50 5.00 -3.796 -3.796 -3.794 -3.791 -3.787 10.04493 17.50010 -6.17418   0.445
 3.50 5.20 -3.730 -3.729 -3.728 -3.725 -3.721 10.19870 17.71959 -5.95476   0.532
 3.50 5.40 -3.664 -3.663 -3.662 -3.659 -3.655 10.35406 17.93742 -5.73700   0.636
 3.50 5.60 -3.597 -3.597 -3.595 -3.593 -3.589 10.51119 18.15301 -5.52143   0.762
 3.50 5.80 -3.530 -3.530 -3.529 -3.526 -3.522 10.66893 18.36606 -5.30833   0.914
 3.50 6.00 -3.462 -3.462 -3.461 -3.458 -3.455 10.82666 18.57703 -5.09729   1.096
 3.50 6.25 -3.377 -3.376 -3.375 -3.373 -3.369 11.02282 18.83797 -4.83633   1.374
 3.50 6.50 -3.289 -3.289 -3.288 -3.286 -3.283 11.21775 19.09656 -4.57774   1.719
 3.50 6.75 -3.201 -3.200 -3.199 -3.197 -3.194 11.40972 19.35321 -4.32113   2.144
 3.50 7.00 -3.111 -3.110 -3.109 -3.107 -3.105 11.59857 19.60831 -4.06606   2.665
 3.50 7.25 -3.020 -3.019 -3.018 -3.017 -3.014 11.78332 19.86207 -3.81229   3.297
 3.50 7.50 -2.928 -2.928 -2.927 -2.925 -2.923 11.96341 20.11494 -3.55941   4.056
 3.50 7.75 -2.837 -2.837 -2.836 -2.834 -2.832 12.13749 20.36725 -3.30710   4.956
 3.50 8.00 -2.748 -2.748 -2.747 -2.745 -2.743 12.30600 20.61889 -3.05547   6.018
 3.52-2.00 -4.945 -4.945 -4.945 -4.944 -4.944  5.14860 10.33985-13.33442   0.002
 3.52-1.50 -5.062 -5.062 -5.061 -5.060 -5.058  5.40875 10.83992-12.83446   0.002
 3.52-1.00 -5.164 -5.163 -5.162 -5.158 -5.154  5.67651 11.33985-12.33442   0.003
 3.52-0.50 -5.246 -5.244 -5.240 -5.234 -5.225  5.95766 11.83992-11.83446   0.004
 3.52 0.00 -5.295 -5.292 -5.287 -5.276 -5.262  6.26198 12.33985-11.33442   0.006
 3.52 0.50 -5.297 -5.293 -5.286 -5.273 -5.255  6.60325 12.83992-10.83446   0.008
 3.52 1.00 -5.243 -5.239 -5.232 -5.218 -5.199  6.99348 13.34005-10.33442   0.013
 3.52 1.25 -5.197 -5.193 -5.185 -5.171 -5.152  7.20750 13.59001-10.08444   0.017
 3.52 1.50 -5.138 -5.134 -5.126 -5.112 -5.093  7.42781 13.83998 -9.83446   0.021
 3.52 1.75 -5.068 -5.064 -5.057 -5.043 -5.025  7.65380 14.09009 -9.58434   0.027
 3.52 2.00 -4.986 -4.982 -4.975 -4.962 -4.945  7.87978 14.34025 -9.33414   0.036
 3.52 2.25 -4.891 -4.888 -4.882 -4.870 -4.855  8.10245 14.59042 -9.08390   0.047
 3.52 2.50 -4.783 -4.780 -4.774 -4.764 -4.750  8.32160 14.84067 -8.83357   0.060
 3.52 2.75 -4.662 -4.659 -4.654 -4.645 -4.633  8.53420 15.09131 -8.58294   0.077
 3.52 3.00 -4.529 -4.527 -4.523 -4.515 -4.505  8.74052 15.34242 -8.33189   0.097
 3.52 3.20 -4.417 -4.415 -4.412 -4.405 -4.396  8.90018 15.54387 -8.13046   0.116
 3.52 3.40 -4.302 -4.300 -4.297 -4.291 -4.283  9.05555 15.74610 -7.92823   0.139
 3.52 3.60 -4.186 -4.185 -4.182 -4.177 -4.170  9.20608 15.94940 -7.72494   0.166
 3.52 3.80 -4.072 -4.070 -4.068 -4.064 -4.058  9.35286 16.15460 -7.51975   0.196
 3.52 4.00 -3.961 -3.960 -3.958 -3.954 -3.949  9.49679 16.36173 -7.31265   0.232
 3.52 4.20 -3.856 -3.855 -3.854 -3.850 -3.845  9.63745 16.57225 -7.10211   0.273
 3.52 4.40 -3.758 -3.757 -3.756 -3.753 -3.749  9.77811 16.78562 -6.88871   0.320
 3.52 4.60 -3.669 -3.668 -3.667 -3.664 -3.660  9.91884 17.00299 -6.67133   0.376
 3.52 4.80 -3.587 -3.587 -3.585 -3.583 -3.579 10.05993 17.22277 -6.45156   0.443
 3.52 5.00 -3.513 -3.513 -3.512 -3.509 -3.505 10.20140 17.44326 -6.23107   0.521
 3.52 5.20 -3.445 -3.444 -3.443 -3.441 -3.438 10.34525 17.66425 -6.01009   0.615
 3.52 5.40 -3.381 -3.380 -3.379 -3.377 -3.374 10.49079 17.88523 -5.78910   0.728
 3.52 5.60 -3.319 -3.318 -3.317 -3.315 -3.312 10.63838 18.10497 -5.56938   0.863
 3.52 5.80 -3.257 -3.257 -3.256 -3.254 -3.251 10.78774 18.32195 -5.35242   1.024
 3.52 6.00 -3.196 -3.195 -3.194 -3.192 -3.189 10.93842 18.53694 -5.13745   1.218
 3.52 6.25 -3.118 -3.117 -3.116 -3.114 -3.111 11.12876 18.80200 -4.87229   1.516
 3.52 6.50 -3.038 -3.037 -3.036 -3.034 -3.032 11.31911 19.06409 -4.61013   1.888
 3.52 6.75 -2.955 -2.955 -2.954 -2.952 -2.950 11.50930 19.32356 -4.35068   2.350
 3.52 7.00 -2.871 -2.870 -2.870 -2.868 -2.865 11.69923 19.58092 -4.09334   2.924
 3.52 7.25 -2.785 -2.784 -2.783 -2.782 -2.779 11.88628 19.83639 -3.83779   3.627
 3.52 7.50 -2.697 -2.697 -2.696 -2.694 -2.692 12.07041 20.09061 -3.58353   4.484
 3.52 7.75 -2.610 -2.609 -2.608 -2.607 -2.605 12.24967 20.34403 -3.33017   5.512
 3.52 8.00 -2.523 -2.522 -2.522 -2.520 -2.518 12.42472 20.59649 -3.07785   6.742
 3.54-2.00 -4.647 -4.647 -4.647 -4.647 -4.647  5.60991 10.31994-13.35438   0.003
 3.54-1.50 -4.783 -4.783 -4.783 -4.783 -4.782  5.86320 10.81987-12.85449   0.003
 3.54-1.00 -4.907 -4.907 -4.906 -4.906 -4.904  6.11893 11.31994-12.35438   0.005
 3.54-0.50 -5.014 -5.013 -5.012 -5.011 -5.008  6.37931 11.81987-11.85449   0.006
 3.54 0.00 -5.095 -5.094 -5.092 -5.088 -5.083  6.64729 12.31994-11.35438   0.009
 3.54 0.50 -5.135 -5.134 -5.130 -5.124 -5.116  6.92911 12.81994-10.85449   0.012
 3.54 1.00 -5.122 -5.119 -5.115 -5.107 -5.095  7.23426 13.31994-10.35438   0.017
 3.54 1.25 -5.093 -5.090 -5.086 -5.077 -5.064  7.40006 13.56994-10.10444   0.020
 3.54 1.50 -5.050 -5.047 -5.042 -5.032 -5.020  7.57611 13.81994 -9.85449   0.025
 3.54 1.75 -4.992 -4.989 -4.984 -4.974 -4.962  7.76514 14.07004 -9.60439   0.031
 3.54 2.00 -4.918 -4.916 -4.911 -4.901 -4.888  7.96445 14.32015 -9.35428   0.039
 3.54 2.25 -4.828 -4.825 -4.820 -4.812 -4.800  8.17536 14.57021 -9.10423   0.049
 3.54 2.50 -4.718 -4.716 -4.711 -4.703 -4.692  8.38970 14.82027 -8.85418   0.063
 3.54 2.75 -4.591 -4.589 -4.585 -4.577 -4.568  8.60652 15.07060 -8.60383   0.081
 3.54 3.00 -4.447 -4.445 -4.442 -4.435 -4.427  8.82334 15.32119 -8.35320   0.104
 3.54 3.20 -4.323 -4.322 -4.319 -4.313 -4.305  8.99318 15.52186 -8.15250   0.127
 3.54 3.40 -4.194 -4.193 -4.190 -4.185 -4.178  9.16014 15.72289 -7.95144   0.154
 3.54 3.60 -4.062 -4.060 -4.058 -4.054 -4.048  9.32355 15.92447 -7.74987   0.185
 3.54 3.80 -3.929 -3.928 -3.926 -3.922 -3.917  9.48272 16.12718 -7.54720   0.223
 3.54 4.00 -3.798 -3.797 -3.796 -3.793 -3.788  9.63809 16.33102 -7.34342   0.266
 3.54 4.20 -3.673 -3.672 -3.670 -3.668 -3.663  9.78895 16.53692 -7.13751   0.317
 3.54 4.40 -3.553 -3.553 -3.551 -3.549 -3.545  9.93695 16.74516 -6.92923   0.376
 3.54 4.60 -3.442 -3.442 -3.440 -3.438 -3.435 10.08189 16.95661 -6.71774   0.444
 3.54 4.80 -3.341 -3.340 -3.339 -3.337 -3.334 10.22514 17.17149 -6.50285   0.524
 3.54 5.00 -3.249 -3.249 -3.248 -3.246 -3.243 10.36736 17.38899 -6.28534   0.617
 3.54 5.20 -3.168 -3.168 -3.167 -3.165 -3.162 10.50868 17.61014 -6.06415   0.726
 3.54 5.40 -3.096 -3.095 -3.095 -3.093 -3.090 10.65000 17.83129 -5.84296   0.854
 3.54 5.60 -3.031 -3.030 -3.030 -3.028 -3.025 10.79151 18.05220 -5.62202   1.005
 3.54 5.80 -2.971 -2.970 -2.970 -2.968 -2.965 10.93363 18.27227 -5.40199   1.183
 3.54 6.00 -2.914 -2.913 -2.912 -2.911 -2.908 11.07628 18.49150 -5.18283   1.395
 3.54 6.25 -2.844 -2.843 -2.842 -2.841 -2.838 11.25638 18.76128 -4.91311   1.716
 3.54 6.50 -2.773 -2.773 -2.772 -2.770 -2.768 11.43791 19.02776 -4.64666   2.115
 3.54 6.75 -2.701 -2.701 -2.700 -2.698 -2.696 11.62130 19.29072 -4.38367   2.613
 3.54 7.00 -2.626 -2.626 -2.625 -2.624 -2.621 11.80496 19.55096 -4.12338   3.228
 3.54 7.25 -2.549 -2.548 -2.548 -2.546 -2.544 11.98878 19.80877 -3.86551   3.989
 3.54 7.50 -2.469 -2.468 -2.468 -2.466 -2.464 12.17260 20.06483 -3.60942   4.929
 3.54 7.75 -2.387 -2.386 -2.386 -2.384 -2.382 12.35328 20.31967 -3.35460   6.069
 3.54 8.00 -2.305 -2.304 -2.303 -2.302 -2.299 12.53186 20.57310 -3.10122   7.454
 3.56-2.00 -4.331 -4.331 -4.331 -4.331 -4.331  6.05805 10.29994-13.37448   0.004
 3.56-1.50 -4.484 -4.484 -4.484 -4.484 -4.484  6.30920 10.79982-12.87452   0.006
 3.56-1.00 -4.625 -4.625 -4.625 -4.625 -4.625  6.56122 11.29994-12.37448   0.008
 3.56-0.50 -4.751 -4.751 -4.751 -4.751 -4.750  6.81471 11.79982-11.87452   0.010
 3.56 0.00 -4.855 -4.855 -4.854 -4.854 -4.852  7.07078 12.29994-11.37448   0.014
 3.56 0.50 -4.922 -4.922 -4.921 -4.919 -4.917  7.33183 12.79982-10.87452   0.018
 3.56 1.00 -4.936 -4.935 -4.933 -4.930 -4.926  7.60097 13.29994-10.37448   0.025
 3.56 1.25 -4.919 -4.918 -4.916 -4.913 -4.908  7.74053 13.54988-10.12450   0.030
 3.56 1.50 -4.888 -4.887 -4.884 -4.880 -4.874  7.88463 13.79982 -9.87452   0.035
 3.56 1.75 -4.842 -4.840 -4.838 -4.833 -4.827  8.03497 14.04988 -9.62446   0.041
 3.56 2.00 -4.780 -4.779 -4.776 -4.771 -4.764  8.19257 14.29994 -9.37438   0.049
 3.56 2.25 -4.702 -4.701 -4.698 -4.693 -4.687  8.35974 14.54999 -9.12430   0.059
 3.56 2.50 -4.606 -4.605 -4.602 -4.598 -4.591  8.53656 14.80003 -8.87420   0.073
 3.56 2.75 -4.491 -4.490 -4.487 -4.482 -4.476  8.72530 15.05015 -8.62406   0.091
 3.56 3.00 -4.355 -4.354 -4.351 -4.347 -4.341  8.92205 15.30038 -8.37387   0.114
 3.56 3.20 -4.234 -4.232 -4.230 -4.226 -4.221  9.08660 15.50072 -8.17351   0.138
 3.56 3.40 -4.103 -4.101 -4.099 -4.096 -4.090  9.25127 15.70126 -7.97294   0.166
 3.56 3.60 -3.965 -3.964 -3.962 -3.959 -3.954  9.41604 15.90206 -7.77213   0.201
 3.56 3.80 -3.823 -3.822 -3.821 -3.818 -3.813  9.58083 16.10341 -7.57083   0.244
 3.56 4.00 -3.680 -3.680 -3.678 -3.676 -3.672  9.74562 16.30535 -7.36896   0.295
 3.56 4.20 -3.539 -3.539 -3.538 -3.535 -3.531  9.90628 16.50850 -7.16584   0.355
 3.56 4.40 -3.402 -3.401 -3.400 -3.398 -3.394 10.06417 16.71319 -6.96116   0.425
 3.56 4.60 -3.270 -3.270 -3.269 -3.267 -3.263 10.21884 16.91992 -6.75441   0.508
 3.56 4.80 -3.147 -3.146 -3.145 -3.143 -3.140 10.37031 17.12960 -6.54471   0.605
 3.56 5.00 -3.033 -3.033 -3.032 -3.030 -3.027 10.51904 17.34203 -6.33227   0.718
 3.56 5.20 -2.931 -2.930 -2.930 -2.928 -2.925 10.66514 17.55895 -6.11546   0.849
 3.56 5.40 -2.840 -2.840 -2.839 -2.837 -2.835 10.80933 17.77768 -5.89679   1.002
 3.56 5.60 -2.761 -2.761 -2.760 -2.758 -2.756 10.95154 17.99846 -5.67598   1.181
 3.56 5.80 -2.692 -2.692 -2.691 -2.689 -2.687 11.09250 18.21992 -5.45445   1.389
 3.56 6.00 -2.631 -2.630 -2.629 -2.628 -2.626 11.23249 18.44138 -5.23292   1.632
 3.56 6.25 -2.561 -2.561 -2.560 -2.559 -2.557 11.40619 18.71525 -4.95902   1.993
 3.56 6.50 -2.497 -2.496 -2.496 -2.494 -2.492 11.57990 18.98646 -4.68782   2.434
 3.56 6.75 -2.434 -2.433 -2.433 -2.431 -2.429 11.75424 19.25362 -4.42071   2.975
 3.56 7.00 -2.370 -2.369 -2.369 -2.367 -2.365 11.92922 19.51759 -4.15677   3.639
 3.56 7.25 -2.304 -2.303 -2.303 -2.301 -2.299 12.10561 19.77851 -3.89587   4.459
 3.56 7.50 -2.235 -2.235 -2.234 -2.232 -2.230 12.28217 20.03703 -3.63733   5.464
 3.56 7.75 -2.163 -2.163 -2.162 -2.160 -2.158 12.45878 20.29372 -3.38060   6.696
 3.56 8.00 -2.089 -2.088 -2.088 -2.086 -2.083 12.63548 20.54839 -3.12587   8.207
 3.58-2.00 -4.002 -4.002 -4.002 -4.002 -4.002  6.48615 10.27990-13.39448   0.007
 3.58-1.50 -4.172 -4.172 -4.172 -4.171 -4.171  6.73664 10.77981-12.89449   0.009
 3.58-1.00 -4.328 -4.328 -4.328 -4.328 -4.328  6.98744 11.27989-12.39448   0.012
 3.58-0.50 -4.469 -4.469 -4.469 -4.469 -4.468  7.23880 11.77981-11.89449   0.016
 3.58 0.00 -4.589 -4.588 -4.588 -4.588 -4.588  7.49094 12.27989-11.39448   0.021
 3.58 0.50 -4.673 -4.673 -4.673 -4.673 -4.672  7.74484 12.77981-10.89449   0.029
 3.58 1.00 -4.703 -4.703 -4.703 -4.702 -4.701  8.00173 13.27990-10.39448   0.039
 3.58 1.25 -4.693 -4.692 -4.692 -4.691 -4.690  8.13197 13.52989-10.14449   0.045
 3.58 1.50 -4.664 -4.664 -4.663 -4.662 -4.661  8.26387 13.77989 -9.89449   0.052
 3.58 1.75 -4.619 -4.619 -4.618 -4.617 -4.615  8.39807 14.02989 -9.64443   0.061
 3.58 2.00 -4.558 -4.558 -4.557 -4.555 -4.553  8.53517 14.27989 -9.39437   0.071
 3.58 2.25 -4.483 -4.483 -4.482 -4.480 -4.477  8.67624 14.52992 -9.14443   0.084
 3.58 2.50 -4.394 -4.393 -4.392 -4.390 -4.387  8.82217 14.77996 -8.89449   0.099
 3.58 2.75 -4.290 -4.290 -4.288 -4.286 -4.283  8.97471 15.03002 -8.64437   0.118
 3.58 3.00 -4.173 -4.172 -4.171 -4.168 -4.165  9.13450 15.28012 -8.39416   0.142
 3.58 3.20 -4.068 -4.067 -4.066 -4.064 -4.061  9.26898 15.48029 -8.19395   0.166
 3.58 3.40 -3.954 -3.953 -3.952 -3.950 -3.947  9.40881 15.68057 -7.99365   0.195
 3.58 3.60 -3.831 -3.831 -3.829 -3.827 -3.824  9.55484 15.88097 -7.79324   0.231
 3.58 3.80 -3.701 -3.700 -3.699 -3.697 -3.694  9.70562 16.08165 -7.59256   0.275
 3.58 4.00 -3.564 -3.563 -3.562 -3.560 -3.557  9.85980 16.28262 -7.39158   0.328
 3.58 4.20 -3.424 -3.423 -3.422 -3.420 -3.417 10.01770 16.48427 -7.18992   0.393
 3.58 4.40 -3.282 -3.281 -3.280 -3.278 -3.275 10.17560 16.68683 -6.98735   0.472
 3.58 4.60 -3.140 -3.140 -3.139 -3.137 -3.134 10.33327 16.89058 -6.78362   0.566
 3.58 4.80 -3.003 -3.002 -3.001 -2.999 -2.997 10.49010 17.09640 -6.57787   0.678
 3.58 5.00 -2.870 -2.870 -2.869 -2.867 -2.865 10.64611 17.30428 -6.37008   0.812
 3.58 5.20 -2.747 -2.747 -2.746 -2.744 -2.742 10.79919 17.51577 -6.15855   0.968
 3.58 5.40 -2.635 -2.634 -2.633 -2.632 -2.630 10.94996 17.73007 -5.94419   1.152
 3.58 5.60 -2.534 -2.534 -2.533 -2.532 -2.530 11.09825 17.94839 -5.72583   1.366
 3.58 5.80 -2.447 -2.447 -2.446 -2.444 -2.442 11.24389 18.16877 -5.50546   1.616
 3.58 6.00 -2.371 -2.371 -2.370 -2.369 -2.367 11.38703 18.38935 -5.28492   1.905
 3.58 6.25 -2.291 -2.291 -2.290 -2.289 -2.286 11.56202 18.66521 -5.00911   2.330
 3.58 6.50 -2.222 -2.222 -2.221 -2.220 -2.218 11.73416 18.94107 -4.73330   2.841
 3.58 6.75 -2.161 -2.161 -2.160 -2.158 -2.156 11.90354 19.21243 -4.46189   3.453
 3.58 7.00 -2.103 -2.103 -2.102 -2.101 -2.098 12.07225 19.48058 -4.19368   4.193
 3.58 7.25 -2.047 -2.046 -2.046 -2.044 -2.042 12.24050 19.74497 -3.92927   5.089
 3.58 7.50 -1.989 -1.989 -1.988 -1.986 -1.984 12.40875 20.00647 -3.66776   6.177
 3.58 7.75 -1.930 -1.930 -1.929 -1.927 -1.924 12.57740 20.26564 -3.40861   7.501
 3.58 8.00 -1.868 -1.868 -1.867 -1.865 -1.862 12.74632 20.52231 -3.15200   9.111
 3.60-2.00 -3.663 -3.663 -3.663 -3.663 -3.663  6.89575 10.25983-13.41465   0.011
 3.60-1.50 -3.848 -3.848 -3.848 -3.848 -3.848  7.14613 10.75974-12.91471   0.014
 3.60-1.00 -4.020 -4.020 -4.019 -4.019 -4.019  7.39637 11.25983-12.41454   0.019
 3.60-0.50 -4.174 -4.174 -4.174 -4.174 -4.173  7.64689 11.75982-11.91435   0.025
 3.60 0.00 -4.305 -4.305 -4.305 -4.304 -4.304  7.89774 12.25983-11.41443   0.034
 3.60 0.50 -4.398 -4.398 -4.398 -4.398 -4.397  8.14922 12.75982-10.91435   0.045
 3.60 1.00 -4.434 -4.434 -4.434 -4.433 -4.433  8.40175 13.25983-10.41443   0.060
 3.60 1.25 -4.424 -4.424 -4.424 -4.423 -4.423  8.52870 13.50986-10.16439   0.069
 3.60 1.50 -4.394 -4.394 -4.394 -4.393 -4.393  8.65629 13.75990 -9.91435   0.080
 3.60 1.75 -4.345 -4.345 -4.345 -4.344 -4.344  8.78476 14.00986 -9.66439   0.093
 3.60 2.00 -4.280 -4.280 -4.279 -4.279 -4.278  8.91434 14.25983 -9.41443   0.108
 3.60 2.25 -4.200 -4.200 -4.200 -4.199 -4.198  9.04543 14.50985 -9.16439   0.126
 3.60 2.50 -4.109 -4.108 -4.108 -4.107 -4.106  9.17840 14.75989 -8.91435   0.146
 3.60 2.75 -4.007 -4.007 -4.006 -4.006 -4.004  9.31396 15.00997 -8.66433   0.171
 3.60 3.00 -3.897 -3.897 -3.896 -3.895 -3.894  9.45271 15.26007 -8.41431   0.201
 3.60 3.20 -3.803 -3.803 -3.802 -3.801 -3.799  9.56680 15.46016 -8.21424   0.229
 3.60 3.40 -3.704 -3.703 -3.702 -3.701 -3.700  9.68412 15.66028 -8.01409   0.262
 3.60 3.60 -3.599 -3.598 -3.598 -3.596 -3.595  9.80502 15.86048 -7.81388   0.301
 3.60 3.80 -3.489 -3.488 -3.487 -3.486 -3.484  9.93033 16.06090 -7.61351   0.348
 3.60 4.00 -3.373 -3.372 -3.372 -3.370 -3.368 10.05994 16.26150 -7.41296   0.404
 3.60 4.20 -3.252 -3.251 -3.250 -3.249 -3.246 10.19502 16.46235 -7.21205   0.472
 3.60 4.40 -3.125 -3.125 -3.124 -3.122 -3.120 10.33430 16.66366 -7.01064   0.554
 3.60 4.60 -2.995 -2.994 -2.993 -2.992 -2.989 10.47825 16.86560 -6.80860   0.654
 3.60 4.80 -2.862 -2.861 -2.860 -2.859 -2.856 10.62538 17.06886 -6.60533   0.774
 3.60 5.00 -2.728 -2.728 -2.727 -2.725 -2.723 10.77474 17.27346 -6.40077   0.920
 3.60 5.20 -2.597 -2.597 -2.596 -2.594 -2.592 10.92637 17.48062 -6.19366   1.096
 3.60 5.40 -2.471 -2.471 -2.470 -2.469 -2.466 11.07800 17.69037 -5.98395   1.305
 3.60 5.60 -2.354 -2.353 -2.353 -2.351 -2.349 11.22930 17.90362 -5.77069   1.553
 3.60 5.80 -2.247 -2.247 -2.246 -2.244 -2.242 11.37942 18.12010 -5.55415   1.846
 3.60 6.00 -2.152 -2.152 -2.151 -2.150 -2.147 11.52840 18.33885 -5.33536   2.191
 3.60 6.25 -2.052 -2.052 -2.051 -2.049 -2.047 11.70961 18.61570 -5.05854   2.699
 3.60 6.50 -1.969 -1.968 -1.968 -1.966 -1.964 11.88638 18.89254 -4.78173   3.308
 3.60 6.75 -1.900 -1.899 -1.899 -1.897 -1.894 12.05769 19.16727 -4.50701   4.030
 3.60 7.00 -1.840 -1.840 -1.839 -1.837 -1.834 12.22531 19.43981 -4.23448   4.888
 3.60 7.25 -1.786 -1.786 -1.785 -1.783 -1.781 12.38968 19.70816 -3.96619   5.906
 3.60 7.50 -1.736 -1.735 -1.734 -1.732 -1.730 12.55218 19.97327 -3.70115   7.120
 3.60 7.75 -1.686 -1.686 -1.685 -1.683 -1.680 12.71358 20.23539 -3.43905   8.574
 3.60 8.00 -1.636 -1.636 -1.635 -1.633 -1.629 12.87361 20.49443 -3.18000  10.310
 3.62-2.00 -3.317 -3.317 -3.317 -3.317 -3.317  7.28825 10.23930-13.43498   0.016
 3.62-1.50 -3.517 -3.517 -3.517 -3.516 -3.516  7.53857 10.73957-12.93479   0.022
 3.62-1.00 -3.703 -3.703 -3.703 -3.702 -3.702  7.78888 11.23980-12.43462   0.029
 3.62-0.50 -3.871 -3.871 -3.870 -3.870 -3.870  8.03902 11.73973-11.93442   0.039
 3.62 0.00 -4.011 -4.011 -4.011 -4.011 -4.010  8.28959 12.23980-11.43451   0.051
 3.62 0.50 -4.109 -4.109 -4.109 -4.109 -4.108  8.54008 12.73981-10.93442   0.069
 3.62 1.00 -4.143 -4.143 -4.143 -4.143 -4.142  8.79120 13.23980-10.43451   0.092
 3.62 1.25 -4.131 -4.131 -4.131 -4.130 -4.129  8.91698 13.48981-10.18446   0.106
 3.62 1.50 -4.097 -4.097 -4.097 -4.096 -4.096  9.04297 13.73981 -9.93442   0.122
 3.62 1.75 -4.044 -4.044 -4.044 -4.043 -4.042  9.16928 13.98981 -9.68446   0.141
 3.62 2.00 -3.974 -3.973 -3.973 -3.973 -3.972  9.29601 14.23980 -9.43451   0.164
 3.62 2.25 -3.890 -3.889 -3.889 -3.889 -3.888  9.42335 14.48980 -9.18446   0.190
 3.62 2.50 -3.795 -3.795 -3.795 -3.794 -3.793  9.55145 14.73981 -8.93442   0.220
 3.62 2.75 -3.693 -3.693 -3.692 -3.692 -3.691  9.68062 14.98993 -8.68440   0.255
 3.62 3.00 -3.585 -3.584 -3.584 -3.583 -3.582  9.81111 15.24005 -8.43439   0.296
 3.62 3.20 -3.494 -3.494 -3.493 -3.492 -3.491  9.91673 15.44005 -8.23440   0.334
 3.62 3.40 -3.401 -3.400 -3.400 -3.399 -3.397 10.02372 15.64005 -8.03441   0.379
 3.62 3.60 -3.304 -3.304 -3.303 -3.302 -3.301 10.13220 15.84009 -7.83433   0.429
 3.62 3.80 -3.205 -3.205 -3.204 -3.203 -3.201 10.24275 16.04026 -7.63407   0.487
 3.62 4.00 -3.103 -3.102 -3.101 -3.100 -3.098 10.35545 16.24055 -7.43368   0.555
 3.62 4.20 -2.997 -2.996 -2.996 -2.994 -2.992 10.47107 16.44104 -7.23323   0.634
 3.62 4.40 -2.888 -2.887 -2.886 -2.885 -2.882 10.58979 16.64183 -7.03259   0.727
 3.62 4.60 -2.775 -2.774 -2.773 -2.772 -2.769 10.71189 16.84297 -6.83155   0.836
 3.62 4.80 -2.659 -2.658 -2.657 -2.656 -2.653 10.83782 17.04484 -6.62964   0.967
 3.62 5.00 -2.540 -2.540 -2.539 -2.537 -2.534 10.96745 17.24748 -6.42690   1.122
 3.62 5.20 -2.420 -2.420 -2.419 -2.417 -2.414 11.10140 17.45167 -6.22271   1.309
 3.62 5.40 -2.300 -2.299 -2.298 -2.297 -2.294 11.23868 17.65774 -6.01666   1.533
 3.62 5.60 -2.182 -2.182 -2.181 -2.179 -2.177 11.38007 17.86638 -5.80799   1.805
 3.62 5.80 -2.069 -2.069 -2.068 -2.067 -2.064 11.52368 18.07833 -5.59598   2.130
 3.62 6.00 -1.964 -1.963 -1.963 -1.961 -1.959 11.66811 18.29314 -5.38112   2.515
 3.62 6.25 -1.846 -1.846 -1.845 -1.844 -1.841 11.84935 18.56748 -5.10697   3.098
 3.62 6.50 -1.746 -1.746 -1.745 -1.743 -1.740 12.03060 18.84298 -4.83150   3.817
 3.62 6.75 -1.663 -1.662 -1.661 -1.660 -1.657 12.20641 19.11924 -4.55513   4.673
 3.62 7.00 -1.593 -1.593 -1.592 -1.590 -1.587 12.37785 19.39550 -4.27877   5.693
 3.62 7.25 -1.535 -1.535 -1.534 -1.532 -1.529 12.54336 19.66767 -4.00658   6.888
 3.62 7.50 -1.485 -1.485 -1.484 -1.481 -1.478 12.70458 19.93672 -3.73755   8.293
 3.62 7.75 -1.440 -1.439 -1.438 -1.436 -1.433 12.86244 20.20212 -3.47215   9.946
 3.62 8.00 -1.397 -1.397 -1.396 -1.393 -1.390 13.01662 20.46404 -3.21021  11.878
 3.64-2.00 -2.969 -2.969 -2.969 -2.968 -2.968  7.66143 10.21880-13.45568   0.024
 3.64-1.50 -3.181 -3.181 -3.181 -3.180 -3.180  7.91201 10.71917-12.95507   0.033
 3.64-1.00 -3.380 -3.380 -3.380 -3.380 -3.379  8.16257 11.21958-12.45482   0.043
 3.64-0.50 -3.561 -3.561 -3.561 -3.561 -3.560  8.41263 11.71966-11.95468   0.058
 3.64 0.00 -3.713 -3.713 -3.713 -3.713 -3.712  8.66295 12.21985-11.45457   0.077
 3.64 0.50 -3.816 -3.816 -3.816 -3.816 -3.815  8.91323 12.71983-10.95468   0.103
 3.64 1.00 -3.848 -3.848 -3.848 -3.847 -3.847  9.16376 13.21985-10.45445   0.137
 3.64 1.25 -3.832 -3.832 -3.832 -3.832 -3.831  9.28908 13.46984-10.20456   0.158
 3.64 1.50 -3.795 -3.795 -3.795 -3.794 -3.793  9.41447 13.71983 -9.95468   0.183
 3.64 1.75 -3.738 -3.738 -3.738 -3.737 -3.736  9.53999 13.96983 -9.70456   0.212
 3.64 2.00 -3.665 -3.664 -3.664 -3.663 -3.663  9.66568 14.21985 -9.45445   0.245
 3.64 2.25 -3.578 -3.578 -3.577 -3.577 -3.576  9.79164 14.46988 -9.20435   0.283
 3.64 2.50 -3.482 -3.481 -3.481 -3.480 -3.479  9.91792 14.71991 -8.95429   0.328
 3.64 2.75 -3.379 -3.378 -3.378 -3.377 -3.376 10.04457 14.96988 -8.70437   0.379
 3.64 3.00 -3.271 -3.270 -3.270 -3.269 -3.267 10.17173 15.21985 -8.45445   0.439
 3.64 3.20 -3.181 -3.181 -3.180 -3.179 -3.177 10.27404 15.41988 -8.25441   0.494
 3.64 3.40 -3.090 -3.089 -3.089 -3.088 -3.086 10.37694 15.61995 -8.05434   0.556
 3.64 3.60 -2.996 -2.996 -2.995 -2.994 -2.992 10.48047 15.82005 -7.85424   0.626
 3.64 3.80 -2.901 -2.901 -2.900 -2.898 -2.896 10.58487 16.02018 -7.65412   0.706
 3.64 4.00 -2.804 -2.804 -2.803 -2.801 -2.799 10.69020 16.22037 -7.45395   0.797
 3.64 4.20 -2.705 -2.705 -2.704 -2.702 -2.699 10.79676 16.42062 -7.25372   0.901
 3.64 4.40 -2.604 -2.603 -2.602 -2.601 -2.598 10.90478 16.62100 -7.05335   1.021
 3.64 4.60 -2.501 -2.500 -2.499 -2.497 -2.494 11.01438 16.82160 -6.85277   1.158
 3.64 4.80 -2.396 -2.395 -2.394 -2.392 -2.389 11.12604 17.02269 -6.65170   1.317
 3.64 5.00 -2.289 -2.289 -2.288 -2.286 -2.282 11.23980 17.22428 -6.45014   1.501
 3.64 5.20 -2.181 -2.181 -2.180 -2.178 -2.174 11.35609 17.42668 -6.24765   1.716
 3.64 5.40 -2.072 -2.072 -2.071 -2.069 -2.066 11.47513 17.63030 -6.04391   1.968
 3.64 5.60 -1.965 -1.964 -1.964 -1.962 -1.959 11.59714 17.83563 -5.83853   2.265
 3.64 5.80 -1.860 -1.859 -1.859 -1.857 -1.854 11.72242 18.04369 -5.63057   2.616
 3.64 6.00 -1.759 -1.758 -1.758 -1.756 -1.753 11.85083 18.25431 -5.42010   3.033
 3.64 6.25 -1.642 -1.641 -1.640 -1.639 -1.635 12.01696 18.52308 -5.15133   3.672
 3.64 6.50 -1.536 -1.536 -1.535 -1.533 -1.530 12.18583 18.79560 -4.87877   4.460
 3.64 6.75 -1.444 -1.444 -1.443 -1.441 -1.438 12.35711 19.07234 -4.60200   5.432
 3.64 7.00 -1.366 -1.365 -1.364 -1.362 -1.359 12.52840 19.34908 -4.32523   6.616
 3.64 7.25 -1.301 -1.300 -1.299 -1.297 -1.294 12.69518 19.62410 -4.05027   8.017
 3.64 7.50 -1.246 -1.245 -1.244 -1.242 -1.238 12.85806 19.89719 -3.77728   9.671
 3.64 7.75 -1.200 -1.200 -1.198 -1.196 -1.192 13.01546 20.16608 -3.50837  11.592
 3.64 8.00 -1.160 -1.160 -1.158 -1.156 -1.152 13.16791 20.43152 -3.24283  13.814
 3.66-2.00 -2.622 -2.622 -2.622 -2.621 -2.620  8.01828 10.19701-13.47730   0.036
 3.66-1.50 -2.844 -2.844 -2.844 -2.843 -2.842  8.26975 10.69819-12.97593   0.048
 3.66-1.00 -3.055 -3.055 -3.055 -3.054 -3.053  8.52048 11.19893-12.47534   0.064
 3.66-0.50 -3.249 -3.249 -3.248 -3.248 -3.247  8.77093 11.69932-11.97510   0.085
 3.66 0.00 -3.413 -3.413 -3.412 -3.412 -3.411  9.02119 12.19948-11.47470   0.114
 3.66 0.50 -3.525 -3.524 -3.524 -3.524 -3.523  9.27138 12.69967-10.97469   0.152
 3.66 1.00 -3.558 -3.558 -3.557 -3.557 -3.556  9.52179 13.19976-10.47457   0.203
 3.66 1.25 -3.540 -3.540 -3.540 -3.539 -3.538  9.64695 13.44980-10.22463   0.235
 3.66 1.50 -3.501 -3.501 -3.500 -3.500 -3.498  9.77210 13.69984 -9.97469   0.271
 3.66 1.75 -3.442 -3.441 -3.441 -3.440 -3.439  9.89745 13.94980 -9.72457   0.313
 3.66 2.00 -3.366 -3.366 -3.365 -3.365 -3.363 10.02284 14.19976 -9.47444   0.361
 3.66 2.25 -3.278 -3.278 -3.277 -3.276 -3.275 10.14824 14.44978 -9.22457   0.417
 3.66 2.50 -3.181 -3.180 -3.180 -3.179 -3.177 10.27370 14.69984 -8.97469   0.482
 3.66 2.75 -3.077 -3.077 -3.076 -3.075 -3.073 10.39938 14.94993 -8.72457   0.557
 3.66 3.00 -2.969 -2.968 -2.968 -2.966 -2.964 10.52530 15.20003 -8.47444   0.644
 3.66 3.20 -2.880 -2.879 -2.879 -2.877 -2.875 10.62626 15.39999 -8.27437   0.723
 3.66 3.40 -2.789 -2.788 -2.788 -2.786 -2.784 10.72746 15.59995 -8.07431   0.813
 3.66 3.60 -2.697 -2.696 -2.695 -2.693 -2.691 10.82893 15.79992 -7.87426   0.914
 3.66 3.80 -2.603 -2.602 -2.601 -2.599 -2.596 10.93077 15.99995 -7.67422   1.028
 3.66 4.00 -2.507 -2.507 -2.506 -2.504 -2.501 11.03302 16.20003 -7.47418   1.156
 3.66 4.20 -2.411 -2.410 -2.409 -2.407 -2.404 11.13579 16.40019 -7.27410   1.301
 3.66 4.40 -2.313 -2.312 -2.311 -2.309 -2.306 11.23920 16.60045 -7.07396   1.466
 3.66 4.60 -2.214 -2.213 -2.212 -2.210 -2.206 11.34334 16.80081 -6.87367   1.652
 3.66 4.80 -2.113 -2.113 -2.112 -2.109 -2.106 11.44844 17.00139 -6.67299   1.865
 3.66 5.00 -2.012 -2.011 -2.010 -2.008 -2.004 11.55449 17.20222 -6.47198   2.107
 3.66 5.20 -1.910 -1.909 -1.908 -1.906 -1.902 11.66166 17.40366 -6.27054   2.384
 3.66 5.40 -1.807 -1.807 -1.806 -1.803 -1.800 11.77009 17.60590 -6.06835   2.701
 3.66 5.60 -1.706 -1.705 -1.704 -1.702 -1.699 11.87981 17.80915 -5.86514   3.064
 3.66 5.80 -1.606 -1.606 -1.605 -1.603 -1.600 11.99114 18.01422 -5.66005   3.483
 3.66 6.00 -1.510 -1.510 -1.509 -1.507 -1.504 12.10415 18.22116 -5.45309   3.967
 3.66 6.25 -1.399 -1.399 -1.398 -1.396 -1.392 12.24825 18.48464 -5.18974   4.683
 3.66 6.50 -1.299 -1.298 -1.297 -1.295 -1.292 12.39585 18.75259 -4.92191   5.551
 3.66 6.75 -1.211 -1.210 -1.209 -1.207 -1.203 12.54845 19.02668 -4.64761   6.617
 3.66 7.00 -1.135 -1.134 -1.133 -1.131 -1.127 12.70372 19.30211 -4.37212   7.912
 3.66 7.25 -1.070 -1.069 -1.068 -1.066 -1.062 12.86163 19.57845 -4.09586   9.490
 3.66 7.50 -1.014 -1.014 -1.012 -1.010 -1.006 13.01953 19.85479 -3.81959  11.382
 3.66 7.75 -0.968 -0.967 -0.966 -0.963 -0.959 13.17375 20.12691 -3.54747  13.593
 3.66 8.00 -0.928 -0.928 -0.927 -0.924 -0.919 13.32552 20.39620 -3.27811  16.187
 3.68-2.00 -2.279 -2.279 -2.279 -2.278 -2.277  8.35603 10.17348-13.50100   0.052
 3.68-1.50 -2.509 -2.509 -2.508 -2.508 -2.507  8.60917 10.67614-12.99827   0.069
 3.68-1.00 -2.729 -2.729 -2.729 -2.728 -2.727  8.86088 11.17783-12.49648   0.093
 3.68-0.50 -2.934 -2.934 -2.933 -2.933 -2.932  9.11193 11.67870-11.99568   0.124
 3.68 0.00 -3.110 -3.110 -3.110 -3.109 -3.108  9.36248 12.17927-11.49512   0.165
 3.68 0.50 -3.234 -3.234 -3.233 -3.232 -3.231  9.61278 12.67952-10.99482   0.220
 3.68 1.00 -3.274 -3.274 -3.273 -3.272 -3.271  9.86308 13.17984-10.49458   0.294
 3.68 1.25 -3.257 -3.257 -3.256 -3.256 -3.254  9.98818 13.42982-10.24447   0.339
 3.68 1.50 -3.218 -3.217 -3.217 -3.216 -3.214 10.11328 13.67979 -9.99439   0.392
 3.68 1.75 -3.158 -3.158 -3.157 -3.156 -3.154 10.23843 13.92982 -9.74442   0.453
 3.68 2.00 -3.082 -3.081 -3.081 -3.080 -3.078 10.36361 14.17984 -9.49444   0.523
 3.68 2.25 -2.993 -2.993 -2.992 -2.991 -2.989 10.48881 14.42986 -9.24442   0.604
 3.68 2.50 -2.895 -2.895 -2.894 -2.893 -2.891 10.61405 14.67988 -8.99439   0.697
 3.68 2.75 -2.791 -2.791 -2.790 -2.789 -2.786 10.73939 14.92986 -8.74442   0.806
 3.68 3.00 -2.683 -2.683 -2.682 -2.680 -2.677 10.86481 15.17984 -8.49444   0.931
 3.68 3.20 -2.594 -2.593 -2.592 -2.590 -2.588 10.96519 15.37984 -8.29443   1.045
 3.68 3.40 -2.503 -2.503 -2.502 -2.499 -2.496 11.06567 15.57986 -8.09441   1.173
 3.68 3.60 -2.411 -2.410 -2.409 -2.407 -2.404 11.16631 15.77993 -7.89438   1.317
 3.68 3.80 -2.318 -2.317 -2.316 -2.313 -2.310 11.26720 15.98003 -7.69435   1.479
 3.68 4.00 -2.223 -2.222 -2.221 -2.219 -2.215 11.36829 16.18013 -7.49431   1.662
 3.68 4.20 -2.127 -2.126 -2.125 -2.123 -2.119 11.46954 16.38021 -7.29421   1.867
 3.68 4.40 -2.031 -2.030 -2.028 -2.026 -2.022 11.57105 16.58029 -7.09406   2.099
 3.68 4.60 -1.933 -1.932 -1.931 -1.928 -1.924 11.67287 16.78044 -6.89384   2.360
 3.68 4.80 -1.834 -1.834 -1.832 -1.830 -1.826 11.77512 16.98077 -6.69347   2.655
 3.68 5.00 -1.735 -1.734 -1.733 -1.730 -1.726 11.87778 17.18127 -6.49295   2.988
 3.68 5.20 -1.635 -1.634 -1.633 -1.631 -1.627 11.98098 17.38212 -6.29216   3.365
 3.68 5.40 -1.535 -1.534 -1.533 -1.531 -1.527 12.08468 17.58345 -6.09092   3.791
 3.68 5.60 -1.435 -1.435 -1.434 -1.432 -1.428 12.18888 17.78543 -5.88901   4.274
 3.68 5.80 -1.338 -1.337 -1.336 -1.334 -1.330 12.29358 17.98863 -5.68578   4.822
 3.68 6.00 -1.242 -1.242 -1.241 -1.239 -1.235 12.39881 18.19312 -5.48122   5.443
 3.68 6.25 -1.131 -1.131 -1.130 -1.128 -1.124 12.53104 18.45216 -5.22210   6.338
 3.68 6.50 -1.030 -1.030 -1.029 -1.027 -1.023 12.66427 18.71517 -4.95900   7.389
 3.68 6.75 -0.943 -0.943 -0.942 -0.940 -0.936 12.79865 18.98436 -4.68990   8.625
 3.68 7.00 -0.871 -0.871 -0.869 -0.867 -0.863 12.93465 19.25720 -4.41714  10.087
 3.68 7.25 -0.813 -0.812 -0.811 -0.809 -0.805 13.07360 19.53399 -4.14037  11.837
 3.68 7.50 -0.765 -0.765 -0.763 -0.761 -0.756 13.21431 19.81077 -3.86360  13.919
 3.68 7.75 -0.726 -0.725 -0.724 -0.721 -0.717 13.35629 20.08537 -3.58901  16.390
 3.68 8.00 -0.692 -0.692 -0.690 -0.687 -0.683 13.49969 20.35851 -3.31587  19.331
 3.70-2.00 -1.944 -1.944 -1.944 -1.943 -1.942  8.67532 10.14551-13.52886   0.073
 3.70-1.50 -2.178 -2.178 -2.178 -2.177 -2.175  8.93212 10.65167-13.02269   0.098
 3.70-1.00 -2.405 -2.405 -2.404 -2.403 -2.402  9.18583 11.15534-12.51913   0.132
 3.70-0.50 -2.618 -2.618 -2.618 -2.617 -2.615  9.43807 11.65725-12.01710   0.176
 3.70 0.00 -2.806 -2.806 -2.805 -2.804 -2.803  9.68931 12.15836-11.51599   0.235
 3.70 0.50 -2.942 -2.942 -2.942 -2.940 -2.939  9.94002 12.65906-11.01534   0.314
 3.70 1.00 -2.994 -2.993 -2.993 -2.991 -2.990 10.19061 13.15957-10.51499   0.418
 3.70 1.25 -2.981 -2.980 -2.980 -2.978 -2.977 10.31568 13.40960-10.26486   0.483
 3.70 1.50 -2.943 -2.943 -2.942 -2.941 -2.939 10.44075 13.65963-10.01475   0.558
 3.70 1.75 -2.885 -2.884 -2.884 -2.882 -2.880 10.56587 13.90975 -9.76465   0.645
 3.70 2.00 -2.809 -2.809 -2.808 -2.807 -2.805 10.69099 14.15987 -9.51456   0.745
 3.70 2.25 -2.721 -2.721 -2.720 -2.718 -2.716 10.81612 14.40980 -9.26457   0.860
 3.70 2.50 -2.624 -2.623 -2.622 -2.621 -2.618 10.94126 14.65973 -9.01457   0.993
 3.70 2.75 -2.520 -2.520 -2.518 -2.517 -2.514 11.06648 14.90980 -8.76450   1.147
 3.70 3.00 -2.412 -2.411 -2.410 -2.408 -2.405 11.19173 15.15987 -8.51442   1.325
 3.70 3.20 -2.323 -2.322 -2.321 -2.319 -2.315 11.29194 15.35985 -8.31445   1.487
 3.70 3.40 -2.232 -2.231 -2.230 -2.228 -2.224 11.39219 15.55983 -8.11447   1.669
 3.70 3.60 -2.140 -2.139 -2.138 -2.135 -2.131 11.49248 15.75982 -7.91448   1.873
 3.70 3.80 -2.047 -2.046 -2.045 -2.042 -2.038 11.59284 15.95983 -7.71446   2.103
 3.70 4.00 -1.953 -1.952 -1.950 -1.948 -1.943 11.69329 16.15987 -7.51442   2.361
 3.70 4.20 -1.857 -1.856 -1.855 -1.852 -1.848 11.79387 16.35993 -7.31437   2.651
 3.70 4.40 -1.761 -1.760 -1.759 -1.756 -1.752 11.89458 16.56004 -7.11427   2.976
 3.70 4.60 -1.664 -1.663 -1.662 -1.659 -1.655 11.99540 16.76019 -6.91414   3.343
 3.70 4.80 -1.566 -1.566 -1.564 -1.561 -1.557 12.09639 16.96043 -6.71390   3.755
 3.70 5.00 -1.468 -1.467 -1.466 -1.463 -1.459 12.19756 17.16077 -6.51357   4.219
 3.70 5.20 -1.369 -1.369 -1.367 -1.365 -1.360 12.29905 17.36126 -6.31308   4.742
 3.70 5.40 -1.270 -1.269 -1.268 -1.266 -1.262 12.40073 17.56200 -6.11232   5.330
 3.70 5.60 -1.171 -1.171 -1.170 -1.167 -1.163 12.50263 17.76313 -5.91118   5.994
 3.70 5.80 -1.073 -1.073 -1.072 -1.070 -1.066 12.60463 17.96509 -5.70922   6.741
 3.70 6.00 -0.977 -0.977 -0.976 -0.974 -0.970 12.70663 18.16791 -5.50640   7.581
 3.70 6.25 -0.863 -0.863 -0.862 -0.860 -0.856 12.83403 18.42383 -5.25046   8.779
 3.70 6.50 -0.758 -0.757 -0.756 -0.754 -0.750 12.96128 18.68287 -4.99140  10.164
 3.70 6.75 -0.664 -0.664 -0.663 -0.661 -0.657 13.08745 18.94718 -4.72720  11.754
 3.70 7.00 -0.587 -0.586 -0.585 -0.583 -0.579 13.21299 19.21590 -4.45855  13.582
 3.70 7.25 -0.527 -0.527 -0.526 -0.523 -0.519 13.33769 19.49060 -4.18360  15.678
 3.70 7.50 -0.484 -0.483 -0.482 -0.479 -0.475 13.46240 19.76619 -3.90798  18.098
 3.70 7.75 -0.453 -0.452 -0.451 -0.448 -0.444 13.58805 20.04209 -3.63215  20.914
 3.70 8.00 -0.430 -0.430 -0.428 -0.425 -0.420 13.71433 20.31848 -3.35596  24.186
 3.73-2.00 -1.462 -1.461 -1.461 -1.460 -1.459  9.10585 10.08672-13.58754   0.116
 3.73-1.50 -1.696 -1.696 -1.695 -1.694 -1.693  9.37694 10.60487-13.06941   0.158
 3.73-1.00 -1.926 -1.926 -1.925 -1.924 -1.922  9.63879 11.11561-12.55862   0.214
 3.73-0.50 -2.146 -2.145 -2.145 -2.144 -2.142  9.89542 11.62180-12.05252   0.288
 3.73 0.00 -2.344 -2.343 -2.343 -2.342 -2.340 10.14922 12.12548-11.54898   0.386
 3.73 0.50 -2.497 -2.497 -2.496 -2.495 -2.493 10.40140 12.62726-11.04701   0.515
 3.73 1.00 -2.569 -2.569 -2.568 -2.567 -2.565 10.65254 13.12840-10.54592   0.688
 3.73 1.25 -2.566 -2.566 -2.565 -2.563 -2.561 10.77792 13.37881-10.29556   0.795
 3.73 1.50 -2.536 -2.536 -2.535 -2.534 -2.531 10.90325 13.62910-10.04527   0.918
 3.73 1.75 -2.484 -2.483 -2.482 -2.481 -2.478 11.02856 13.87924 -9.79503   1.060
 3.73 2.00 -2.413 -2.412 -2.411 -2.409 -2.407 11.15382 14.12937 -9.54485   1.225
 3.73 2.25 -2.328 -2.327 -2.326 -2.324 -2.321 11.27890 14.37950 -9.29477   1.415
 3.73 2.50 -2.233 -2.232 -2.231 -2.229 -2.226 11.40398 14.62961 -9.04470   1.635
 3.73 2.75 -2.131 -2.130 -2.129 -2.127 -2.123 11.52913 14.87965 -8.79462   1.888
 3.73 3.00 -2.024 -2.023 -2.022 -2.020 -2.016 11.65427 15.12969 -8.54455   2.181
 3.73 3.20 -1.936 -1.935 -1.934 -1.932 -1.928 11.75438 15.32973 -8.34453   2.447
 3.73 3.40 -1.847 -1.846 -1.844 -1.842 -1.838 11.85450 15.52979 -8.14451   2.746
 3.73 3.60 -1.756 -1.755 -1.753 -1.751 -1.746 11.95463 15.72986 -7.94448   3.082
 3.73 3.80 -1.664 -1.663 -1.661 -1.658 -1.654 12.05482 15.92993 -7.74444   3.458
 3.73 4.00 -1.571 -1.570 -1.568 -1.565 -1.561 12.15503 16.13001 -7.54439   3.881
 3.73 4.20 -1.477 -1.476 -1.474 -1.471 -1.466 12.25527 16.33002 -7.34438   4.356
 3.73 4.40 -1.382 -1.381 -1.379 -1.376 -1.371 12.35554 16.53002 -7.14437   4.888
 3.73 4.60 -1.286 -1.285 -1.284 -1.280 -1.276 12.45584 16.73005 -6.94433   5.487
 3.73 4.80 -1.189 -1.189 -1.187 -1.184 -1.179 12.55619 16.93016 -6.74424   6.159
 3.73 5.00 -1.092 -1.092 -1.090 -1.087 -1.082 12.65658 17.13033 -6.54409   6.914
 3.73 5.20 -0.994 -0.994 -0.992 -0.989 -0.985 12.75709 17.33056 -6.34385   7.762
 3.73 5.40 -0.896 -0.895 -0.894 -0.892 -0.887 12.85762 17.53092 -6.14346   8.715
 3.73 5.60 -0.798 -0.797 -0.796 -0.794 -0.789 12.95817 17.73146 -5.94288   9.784
 3.73 5.80 -0.699 -0.699 -0.698 -0.696 -0.692 13.05872 17.93244 -5.74189  10.985
 3.73 6.00 -0.602 -0.602 -0.601 -0.599 -0.595 13.15927 18.13386 -5.54046  12.334
 3.73 6.25 -0.484 -0.484 -0.483 -0.481 -0.478 13.28465 18.38690 -5.28743  14.249
 3.73 6.50 -0.371 -0.371 -0.370 -0.368 -0.365 13.40960 18.64177 -5.03259  16.452
 3.73 6.75 -0.267 -0.266 -0.266 -0.264 -0.260 13.53318 18.90010 -4.77430  18.967
 3.73 7.00 -0.174 -0.174 -0.173 -0.171 -0.168 13.65514 19.16227 -4.51216  21.827
 3.73 7.25 -0.099 -0.098 -0.097 -0.095 -0.092 13.77420 19.43032 -4.24394  25.034
 3.73 7.50 -0.042 -0.042 -0.041 -0.039 -0.035 13.89048 19.70234 -3.97184  28.620
 3.73 7.75 -0.006 -0.006 -0.005 -0.003  0.000 14.00357 19.97738 -3.69688  32.601
 3.73 8.00  0.012  0.013  0.014  0.016  0.021 14.11361 20.25575 -3.41873  37.005
 3.76-2.00 -1.022 -1.022 -1.022 -1.021 -1.019  9.44963  9.98994-13.68445   0.166
 3.76-1.50 -1.241 -1.241 -1.240 -1.239 -1.237  9.75899 10.53224-13.14207   0.238
 3.76-1.00 -1.463 -1.463 -1.462 -1.461 -1.459 10.04297 11.05994-12.61422   0.330
 3.76-0.50 -1.679 -1.679 -1.678 -1.677 -1.675 10.31239 11.57692-12.09745   0.449
 3.76 0.00 -1.878 -1.877 -1.877 -1.876 -1.874 10.57334 12.08672-11.58754   0.607
 3.76 0.50 -2.039 -2.038 -2.038 -2.036 -2.034 10.82943 12.59251-11.08187   0.815
 3.76 1.00 -2.128 -2.128 -2.127 -2.126 -2.124 11.08279 13.09587-10.57856   1.091
 3.76 1.25 -2.136 -2.136 -2.135 -2.134 -2.131 11.20895 13.34676-10.32756   1.261
 3.76 1.50 -2.118 -2.118 -2.117 -2.116 -2.113 11.33486 13.59748-10.07681   1.458
 3.76 1.75 -2.076 -2.076 -2.075 -2.073 -2.071 11.46052 13.84813 -9.82622   1.685
 3.76 2.00 -2.014 -2.013 -2.012 -2.011 -2.008 11.58603 14.09864 -9.57577   1.947
 3.76 2.25 -1.936 -1.935 -1.934 -1.933 -1.930 11.71141 14.34893 -9.32546   2.250
 3.76 2.50 -1.847 -1.846 -1.845 -1.843 -1.840 11.83670 14.59912 -9.07520   2.599
 3.76 2.75 -1.750 -1.749 -1.748 -1.746 -1.743 11.96189 14.84923 -8.82497   3.002
 3.76 3.00 -1.648 -1.647 -1.646 -1.644 -1.640 12.08707 15.09934 -8.57479   3.467
 3.76 3.20 -1.563 -1.563 -1.561 -1.559 -1.555 12.18723 15.29947 -8.37475   3.891
 3.76 3.40 -1.477 -1.476 -1.475 -1.472 -1.468 12.28738 15.49960 -8.17471   4.367
 3.76 3.60 -1.389 -1.389 -1.387 -1.384 -1.380 12.38753 15.69967 -7.97464   4.900
 3.76 3.80 -1.300 -1.300 -1.298 -1.295 -1.291 12.48768 15.89968 -7.77455   5.499
 3.76 4.00 -1.210 -1.209 -1.208 -1.205 -1.200 12.58782 16.09968 -7.57447   6.171
 3.76 4.20 -1.119 -1.118 -1.116 -1.113 -1.109 12.68796 16.29976 -7.37447   6.925
 3.76 4.40 -1.026 -1.026 -1.024 -1.021 -1.016 12.78809 16.49984 -7.17448   7.771
 3.76 4.60 -0.933 -0.932 -0.931 -0.928 -0.923 12.88829 16.69991 -6.97446   8.721
 3.76 4.80 -0.839 -0.838 -0.836 -0.833 -0.829 12.98857 16.89997 -6.77440   9.788
 3.76 5.00 -0.743 -0.743 -0.741 -0.738 -0.734 13.08884 17.10003 -6.57430  10.985
 3.76 5.20 -0.647 -0.646 -0.645 -0.642 -0.638 13.18901 17.30017 -6.37418  12.328
 3.76 5.40 -0.550 -0.550 -0.548 -0.546 -0.541 13.28917 17.50040 -6.17399  13.836
 3.76 5.60 -0.453 -0.452 -0.451 -0.449 -0.445 13.38939 17.70069 -5.97370  15.529
 3.76 5.80 -0.355 -0.355 -0.354 -0.351 -0.348 13.48967 17.90113 -5.77322  17.429
 3.76 6.00 -0.257 -0.257 -0.256 -0.254 -0.251 13.58995 18.10175 -5.57252  19.561
 3.76 6.25 -0.138 -0.137 -0.137 -0.135 -0.131 13.71499 18.35332 -5.32094  22.590
 3.76 6.50 -0.020 -0.020 -0.019 -0.017 -0.014 13.83967 18.60595 -5.06834  26.078
 3.76 6.75  0.091  0.092  0.092  0.094  0.097 13.96358 18.86051 -4.81374  30.076
 3.76 7.00  0.196  0.197  0.197  0.199  0.202 14.08636 19.11760 -4.55658  34.641
 3.76 7.25  0.289  0.290  0.290  0.292  0.295 14.20674 19.37928 -4.29500  39.790
 3.76 7.50  0.366  0.367  0.367  0.369  0.372 14.32428 19.64532 -4.02905  45.556
 3.76 7.75  0.423  0.423  0.424  0.425  0.429 14.43728 19.91640 -3.75792  51.886
 3.76 8.00  0.458  0.458  0.459  0.461  0.464 14.54630 20.19229 -3.48188  58.825
 3.79-2.00 -0.698 -0.698 -0.697 -0.696 -0.694  9.64856  9.86303-13.81135   0.202
 3.79-1.50 -0.849 -0.849 -0.848 -0.847 -0.845 10.03623 10.41963-13.25477   0.316
 3.79-1.00 -1.035 -1.035 -1.034 -1.033 -1.031 10.37346 10.97234-12.70202   0.466
 3.79-0.50 -1.231 -1.231 -1.230 -1.229 -1.227 10.67505 11.51068-12.16368   0.659
 3.79 0.00 -1.417 -1.417 -1.416 -1.415 -1.413 10.95453 12.03543-11.63903   0.909
 3.79 0.50 -1.572 -1.572 -1.571 -1.570 -1.568 11.22115 12.54998-11.12436   1.236
 3.79 1.00 -1.668 -1.668 -1.668 -1.666 -1.665 11.48058 13.05843-10.61583   1.666
 3.79 1.25 -1.686 -1.685 -1.685 -1.684 -1.682 11.60862 13.31129-10.36305   1.931
 3.79 1.50 -1.680 -1.679 -1.678 -1.677 -1.675 11.73592 13.56348-10.11092   2.236
 3.79 1.75 -1.650 -1.650 -1.649 -1.648 -1.646 11.86264 13.81511 -9.85926   2.587
 3.79 2.00 -1.601 -1.600 -1.599 -1.598 -1.596 11.98896 14.06633 -9.60801   2.992
 3.79 2.25 -1.534 -1.534 -1.533 -1.532 -1.529 12.11500 14.31717 -9.35717   3.459
 3.79 2.50 -1.456 -1.455 -1.454 -1.453 -1.450 12.24080 14.56785 -9.10651   3.997
 3.79 2.75 -1.368 -1.367 -1.366 -1.364 -1.362 12.36635 14.81846 -8.85596   4.619
 3.79 3.00 -1.273 -1.273 -1.272 -1.270 -1.267 12.49178 15.06893 -8.60555   5.337
 3.79 3.20 -1.195 -1.194 -1.193 -1.191 -1.188 12.59205 15.26906 -8.40536   5.990
 3.79 3.40 -1.114 -1.113 -1.112 -1.110 -1.106 12.69230 15.46919 -8.20520   6.723
 3.79 3.60 -1.031 -1.031 -1.029 -1.027 -1.023 12.79253 15.66934 -8.00507   7.545
 3.79 3.80 -0.947 -0.946 -0.945 -0.943 -0.939 12.89275 15.86950 -7.80495   8.468
 3.79 4.00 -0.862 -0.861 -0.860 -0.857 -0.853 12.99295 16.06967 -7.60485   9.504
 3.79 4.20 -0.775 -0.774 -0.773 -0.770 -0.766 13.09309 16.26969 -7.40475  10.665
 3.79 4.40 -0.687 -0.686 -0.685 -0.682 -0.678 13.19322 16.46971 -7.20467  11.969
 3.79 4.60 -0.598 -0.597 -0.595 -0.593 -0.588 13.29340 16.66979 -7.00461  13.432
 3.79 4.80 -0.507 -0.506 -0.505 -0.502 -0.498 13.39364 16.86991 -6.80455  15.075
 3.79 5.00 -0.415 -0.414 -0.413 -0.410 -0.406 13.49388 17.07004 -6.60450  16.918
 3.79 5.20 -0.322 -0.321 -0.320 -0.317 -0.313 13.59407 17.27005 -6.40442  18.987
 3.79 5.40 -0.227 -0.227 -0.226 -0.223 -0.219 13.69427 17.47007 -6.20431  21.309
 3.79 5.60 -0.132 -0.132 -0.131 -0.128 -0.125 13.79448 17.67014 -6.00415  23.915
 3.79 5.80 -0.036 -0.036 -0.035 -0.033 -0.029 13.89471 17.87039 -5.80386  26.839
 3.79 6.00  0.059  0.060  0.061  0.062  0.066 13.99493 18.07078 -5.60345  30.122
 3.79 6.25  0.179  0.179  0.180  0.182  0.185 14.12007 18.32161 -5.35266  34.790
 3.79 6.50  0.298  0.299  0.299  0.301  0.304 14.24502 18.57299 -5.10139  40.174
 3.79 6.75  0.415  0.415  0.416  0.418  0.420 14.36956 18.82536 -4.84896  46.367
 3.79 7.00  0.528  0.528  0.529  0.530  0.533 14.49346 19.07918 -4.59500  53.475
 3.79 7.25  0.633  0.634  0.634  0.636  0.638 14.61587 19.33600 -4.33822  61.567
 3.79 7.50  0.728  0.728  0.729  0.730  0.733 14.73632 19.59627 -4.07805  70.724
 3.79 7.75  0.806  0.807  0.807  0.809  0.811 14.85284 19.86190 -3.81246  80.878
 3.79 8.00  0.865  0.865  0.866  0.867  0.870 14.96610 20.13226 -3.54212  92.142
 3.82-2.00 -0.565 -0.565 -0.564 -0.563 -0.561  9.69810  9.77612-13.89825   0.207
 3.82-1.50 -0.610 -0.609 -0.609 -0.607 -0.605 10.16227 10.30406-13.37039   0.353
 3.82-1.00 -0.700 -0.700 -0.699 -0.698 -0.696 10.58365 10.85297-12.82131   0.573
 3.82-0.50 -0.833 -0.833 -0.832 -0.831 -0.829 10.95168 11.41027-12.26416   0.875
 3.82 0.00 -0.980 -0.980 -0.979 -0.978 -0.976 11.27416 11.95818-11.71625   1.269
 3.82 0.50 -1.111 -1.111 -1.110 -1.109 -1.108 11.56620 12.49108-11.18330   1.776
 3.82 1.00 -1.199 -1.199 -1.198 -1.197 -1.196 11.84023 13.01157-10.66274   2.435
 3.82 1.25 -1.219 -1.219 -1.218 -1.217 -1.216 11.97297 13.26838-10.40594   2.837
 3.82 1.50 -1.221 -1.220 -1.220 -1.219 -1.217 12.10380 13.52362-10.15070   3.298
 3.82 1.75 -1.203 -1.203 -1.202 -1.201 -1.199 12.23308 13.77757 -9.89666   3.828
 3.82 2.00 -1.167 -1.167 -1.166 -1.165 -1.163 12.36135 14.03060 -9.64359   4.437
 3.82 2.25 -1.115 -1.115 -1.114 -1.113 -1.111 12.48890 14.28290 -9.39136   5.139
 3.82 2.50 -1.050 -1.050 -1.049 -1.048 -1.046 12.61585 14.53466 -9.13966   5.947
 3.82 2.75 -0.975 -0.975 -0.974 -0.973 -0.970 12.74226 14.78602 -8.88833   6.879
 3.82 3.00 -0.892 -0.892 -0.891 -0.890 -0.887 12.86835 15.03703 -8.63733   7.954
 3.82 3.20 -0.822 -0.822 -0.821 -0.819 -0.816 12.96906 15.23756 -8.43677   8.932
 3.82 3.40 -0.749 -0.748 -0.748 -0.746 -0.743 13.06966 15.43801 -8.23633  10.029
 3.82 3.60 -0.673 -0.673 -0.672 -0.670 -0.667 13.17014 15.63839 -8.03598  11.259
 3.82 3.80 -0.596 -0.596 -0.595 -0.593 -0.589 13.27054 15.83874 -7.83569  12.638
 3.82 4.00 -0.517 -0.517 -0.516 -0.513 -0.510 13.37088 16.03902 -7.63545  14.186
 3.82 4.20 -0.437 -0.436 -0.435 -0.433 -0.429 13.47117 16.23914 -7.43526  15.922
 3.82 4.40 -0.355 -0.354 -0.353 -0.351 -0.347 13.57145 16.43927 -7.23509  17.871
 3.82 4.60 -0.271 -0.271 -0.269 -0.267 -0.263 13.67174 16.63943 -7.03494  20.058
 3.82 4.80 -0.186 -0.185 -0.184 -0.182 -0.178 13.77204 16.83962 -6.83481  22.513
 3.82 5.00 -0.099 -0.099 -0.098 -0.095 -0.092 13.87233 17.03981 -6.63470  25.268
 3.82 5.20 -0.011 -0.010 -0.009 -0.007 -0.003 13.97255 17.23982 -6.43461  28.360
 3.82 5.40  0.078  0.079  0.080  0.082  0.085 14.07276 17.43983 -6.23453  31.831
 3.82 5.60  0.170  0.170  0.171  0.173  0.176 14.17306 17.63987 -6.03441  35.726
 3.82 5.80  0.262  0.263  0.264  0.265  0.269 14.27345 17.84000 -5.83421  40.100
 3.82 6.00  0.356  0.357  0.357  0.359  0.362 14.37383 18.04021 -5.63395  45.008
 3.82 6.25  0.474  0.474  0.475  0.477  0.479 14.49918 18.29063 -5.38355  51.995
 3.82 6.50  0.593  0.593  0.593  0.595  0.597 14.62439 18.54133 -5.13295  60.062
 3.82 6.75  0.710  0.711  0.711  0.713  0.715 14.74944 18.79254 -4.88172  69.365
 3.82 7.00  0.827  0.827  0.828  0.829  0.831 14.87419 19.04454 -4.62967  80.079
 3.82 7.25  0.940  0.940  0.941  0.942  0.944 14.99812 19.29824 -4.37602  92.360
 3.82 7.50  1.047  1.047  1.048  1.049  1.051 15.12090 19.55413 -4.12022 106.384
 3.82 7.75  1.142  1.143  1.143  1.144  1.146 15.24091 19.81418 -3.86015 122.151
 3.82 8.00  1.224  1.224  1.224  1.226  1.228 15.35870 20.07773 -3.59654 139.898
 3.85-2.00 -0.538 -0.538 -0.537 -0.535 -0.533  9.68458  9.73199-13.94233   0.197
 3.85-1.50 -0.537 -0.536 -0.536 -0.534 -0.531 10.17696 10.23855-13.43569   0.347
 3.85-1.00 -0.540 -0.540 -0.539 -0.537 -0.535 10.65533 10.75656-12.91757   0.601
 3.85-0.50 -0.563 -0.563 -0.562 -0.561 -0.558 11.10209 11.29469-12.37976   1.006
 3.85 0.00 -0.618 -0.618 -0.617 -0.616 -0.614 11.49859 11.85003-11.82420   1.588
 3.85 0.50 -0.688 -0.688 -0.688 -0.687 -0.685 11.84354 12.40449-11.26986   2.362
 3.85 1.00 -0.742 -0.742 -0.741 -0.740 -0.739 12.15014 12.94542-10.72886   3.361
 3.85 1.25 -0.754 -0.754 -0.754 -0.753 -0.752 12.29353 13.21015-10.46410   3.964
 3.85 1.50 -0.755 -0.754 -0.754 -0.753 -0.752 12.43249 13.47188-10.20239   4.652
 3.85 1.75 -0.742 -0.742 -0.741 -0.740 -0.739 12.56795 13.73099 -9.94335   5.437
 3.85 2.00 -0.715 -0.715 -0.715 -0.714 -0.712 12.70088 13.98807 -9.68634   6.337
 3.85 2.25 -0.676 -0.676 -0.676 -0.675 -0.673 12.83180 14.24339 -9.43102   7.368
 3.85 2.50 -0.626 -0.626 -0.625 -0.624 -0.623 12.96133 14.49748 -9.17692   8.553
 3.85 2.75 -0.566 -0.566 -0.565 -0.564 -0.562 13.08983 14.75065 -8.92378   9.915
 3.85 3.00 -0.498 -0.497 -0.497 -0.496 -0.494 13.21748 15.00303 -8.67142  11.484
 3.85 3.20 -0.438 -0.438 -0.437 -0.436 -0.434 13.31903 15.20440 -8.47003  12.909
 3.85 3.40 -0.375 -0.375 -0.374 -0.373 -0.370 13.42031 15.40550 -8.26891  14.506
 3.85 3.60 -0.309 -0.309 -0.308 -0.306 -0.304 13.52137 15.60640 -8.06804  16.297
 3.85 3.80 -0.240 -0.240 -0.239 -0.238 -0.235 13.62228 15.80715 -7.86733  18.305
 3.85 4.00 -0.170 -0.169 -0.168 -0.167 -0.164 13.72305 16.00775 -7.66675  20.556
 3.85 4.20 -0.097 -0.097 -0.096 -0.094 -0.091 13.82364 16.20819 -7.46627  23.081
 3.85 4.40 -0.023 -0.022 -0.021 -0.019 -0.017 13.92417 16.40854 -7.26587  25.914
 3.85 4.60  0.053  0.053  0.054  0.056  0.059 14.02465 16.60874 -7.06557  29.092
 3.85 4.80  0.131  0.131  0.132  0.134  0.137 14.12512 16.80888 -6.86534  32.659
 3.85 5.00  0.211  0.211  0.212  0.214  0.217 14.22557 17.00903 -6.66514  36.663
 3.85 5.20  0.292  0.293  0.294  0.296  0.299 14.32602 17.20926 -6.46499  41.156
 3.85 5.40  0.376  0.377  0.378  0.379  0.382 14.42647 17.40949 -6.26483  46.200
 3.85 5.60  0.462  0.463  0.463  0.465  0.468 14.52691 17.60966 -6.06467  51.863
 3.85 5.80  0.550  0.550  0.551  0.553  0.555 14.62735 17.80977 -5.86451  58.222
 3.85 6.00  0.639  0.640  0.640  0.642  0.644 14.72779 18.00988 -5.66434  65.360
 3.85 6.25  0.753  0.753  0.754  0.755  0.757 14.85335 18.26015 -5.41412  75.526
 3.85 6.50  0.868  0.868  0.869  0.870  0.872 14.97891 18.51055 -5.16387  87.274
 3.85 6.75  0.985  0.985  0.985  0.986  0.988 15.10445 18.76111 -4.91322 100.842
 3.85 7.00  1.101  1.102  1.102  1.103  1.105 15.22994 19.01199 -4.66214 116.507
 3.85 7.25  1.217  1.218  1.218  1.219  1.221 15.35488 19.26385 -4.41035 134.538
 3.85 7.50  1.331  1.331  1.332  1.333  1.334 15.47914 19.51693 -4.15745 155.252
 3.85 7.75  1.438  1.439  1.439  1.440  1.441 15.60182 19.77252 -3.90188 178.804
 3.85 8.00  1.537  1.538  1.538  1.539  1.540 15.72321 20.03020 -3.64417 205.612
 3.88-2.00 -0.535 -0.535 -0.535 -0.534 -0.532  9.65744  9.69932-13.97511   0.184
 3.88-1.50 -0.527 -0.526 -0.526 -0.524 -0.522 10.15594 10.20058-13.47379   0.327
 3.88-1.00 -0.507 -0.506 -0.505 -0.503 -0.500 10.65138 10.70475-12.96940   0.578
 3.88-0.50 -0.468 -0.467 -0.466 -0.465 -0.462 11.13767 11.21643-12.45780   1.012
 3.88 0.00 -0.417 -0.416 -0.416 -0.414 -0.412 11.60097 11.74492-11.92922   1.725
 3.88 0.50 -0.374 -0.374 -0.373 -0.372 -0.370 12.02119 12.29425-11.38007   2.799
 3.88 1.00 -0.345 -0.345 -0.344 -0.344 -0.342 12.38810 12.85150-10.82275   4.270
 3.88 1.25 -0.331 -0.331 -0.331 -0.330 -0.328 12.55346 13.12671-10.54756   5.165
 3.88 1.50 -0.314 -0.314 -0.313 -0.312 -0.311 12.70978 13.39898-10.27532   6.184
 3.88 1.75 -0.292 -0.292 -0.292 -0.291 -0.290 12.85831 13.66702-10.00724   7.339
 3.88 2.00 -0.264 -0.264 -0.264 -0.263 -0.262 13.00130 13.93166 -9.74256   8.653
 3.88 2.25 -0.230 -0.230 -0.230 -0.229 -0.228 13.13995 14.19295 -9.48131  10.149
 3.88 2.50 -0.189 -0.189 -0.189 -0.188 -0.187 13.27531 14.45179 -9.22250  11.859
 3.88 2.75 -0.142 -0.141 -0.141 -0.140 -0.139 13.40800 14.70863 -8.96567  13.817
 3.88 3.00 -0.087 -0.087 -0.087 -0.086 -0.084 13.53883 14.96388 -8.71041  16.063
 3.88 3.20 -0.039 -0.039 -0.039 -0.038 -0.036 13.64242 15.16705 -8.50722  18.098
 3.88 3.40  0.011  0.012  0.012  0.013  0.015 13.74535 15.36963 -8.30464  20.375
 3.88 3.60  0.066  0.067  0.067  0.068  0.070 13.84766 15.57169 -8.10261  22.923
 3.88 3.80  0.124  0.125  0.125  0.127  0.129 13.94958 15.77339 -7.90094  25.778
 3.88 4.00  0.185  0.185  0.186  0.187  0.189 14.05115 15.97474 -7.69962  28.976
 3.88 4.20  0.248  0.249  0.249  0.251  0.253 14.15244 16.17579 -7.49856  32.560
 3.88 4.40  0.314  0.314  0.315  0.316  0.318 14.25356 16.37663 -7.29771  36.580
 3.88 4.60  0.381  0.381  0.382  0.384  0.386 14.35452 16.57729 -7.09707  41.088
 3.88 4.80  0.451  0.451  0.452  0.453  0.456 14.45539 16.77784 -6.89657  46.147
 3.88 5.00  0.522  0.523  0.523  0.525  0.527 14.55618 16.97827 -6.69616  51.824
 3.88 5.20  0.596  0.597  0.597  0.599  0.601 14.65691 17.17861 -6.49581  58.192
 3.88 5.40  0.672  0.673  0.673  0.675  0.677 14.75760 17.37888 -6.29551  65.343
 3.88 5.60  0.751  0.751  0.752  0.753  0.756 14.85826 17.57910 -6.09526  73.373
 3.88 5.80  0.832  0.832  0.833  0.834  0.836 14.95891 17.77929 -5.89505  82.390
 3.88 6.00  0.915  0.915  0.916  0.917  0.919 15.05956 17.97946 -5.69486  92.515
 3.88 6.25  1.022  1.022  1.023  1.024  1.026 15.18543 18.22966 -5.44468 106.942
 3.88 6.50  1.132  1.132  1.133  1.133  1.135 15.31133 18.47986 -5.19450 123.623
 3.88 6.75  1.244  1.244  1.245  1.245  1.247 15.43729 18.73020 -4.94413 142.912
 3.88 7.00  1.358  1.359  1.359  1.360  1.361 15.56324 18.98069 -4.69358 165.211
 3.88 7.25  1.474  1.474  1.474  1.475  1.476 15.68901 19.23147 -4.44279 190.949
 3.88 7.50  1.590  1.590  1.590  1.591  1.592 15.81451 19.48273 -4.19159 220.630
 3.88 7.75  1.703  1.703  1.704  1.704  1.705 15.93895 19.73532 -3.93898 254.630
 3.88 8.00  1.813  1.814  1.814  1.814  1.815 16.06258 19.98896 -3.68529 293.612
 3.91-2.00 -0.537 -0.537 -0.537 -0.536 -0.535  9.62808  9.66876-14.00555   0.172
 3.91-1.50 -0.530 -0.529 -0.529 -0.528 -0.526 10.12775 10.16909-13.50529   0.306
 3.91-1.00 -0.510 -0.510 -0.509 -0.507 -0.504 10.62675 10.66997-13.00432   0.543
 3.91-0.50 -0.463 -0.463 -0.462 -0.460 -0.457 11.12353 11.17290-12.50155   0.962
 3.91 0.00 -0.373 -0.373 -0.372 -0.370 -0.367 11.61426 11.68106-11.99311   1.693
 3.91 0.50 -0.239 -0.239 -0.238 -0.237 -0.234 12.08778 12.20249-11.47198   2.920
 3.91 1.00 -0.088 -0.088 -0.088 -0.087 -0.085 12.52556 12.74484-10.92959   4.833
 3.91 1.25 -0.020 -0.019 -0.019 -0.018 -0.016 12.72476 13.02315-10.65117   6.079
 3.91 1.50  0.042  0.042  0.042  0.043  0.045 12.91126 13.30146-10.37274   7.535
 3.91 1.75  0.096  0.096  0.096  0.097  0.098 13.08455 13.57849-10.09572   9.198
 3.91 2.00  0.145  0.145  0.146  0.146  0.148 13.24748 13.85388 -9.82045  11.095
 3.91 2.25  0.190  0.190  0.191  0.191  0.193 13.40115 14.12452 -9.54980  13.243
 3.91 2.50  0.235  0.235  0.235  0.236  0.237 13.54814 14.39164 -9.28266  15.686
 3.91 2.75  0.279  0.279  0.280  0.280  0.282 13.68977 14.65518 -9.01914  18.464
 3.91 3.00  0.326  0.326  0.327  0.327  0.329 13.82743 14.91587 -8.75845  21.634
 3.91 3.20  0.366  0.366  0.366  0.367  0.368 13.93518 15.12250 -8.55180  24.492
 3.91 3.40  0.408  0.408  0.408  0.409  0.411 14.04150 15.32795 -8.34633  27.681
 3.91 3.60  0.453  0.453  0.453  0.454  0.456 14.14649 15.53231 -8.14202  31.237
 3.91 3.80  0.500  0.500  0.501  0.502  0.503 14.25061 15.73590 -7.93848  35.215
 3.91 4.00  0.550  0.551  0.551  0.552  0.554 14.35392 15.93877 -7.73565  39.662
 3.91 4.20  0.603  0.603  0.604  0.605  0.607 14.45654 16.14101 -7.53339  44.638
 3.91 4.40  0.658  0.659  0.659  0.660  0.662 14.55875 16.34282 -7.33154  50.214
 3.91 4.60  0.716  0.716  0.717  0.718  0.720 14.66058 16.54425 -7.13007  56.460
 3.91 4.80  0.776  0.776  0.777  0.778  0.780 14.76220 16.74543 -6.92886  63.466
 3.91 5.00  0.839  0.839  0.839  0.841  0.843 14.86362 16.94636 -6.72793  71.324
 3.91 5.20  0.903  0.904  0.904  0.905  0.907 14.96490 17.14709 -6.52727  80.137
 3.91 5.40  0.971  0.971  0.972  0.973  0.975 15.06607 17.34769 -6.32673  90.032
 3.91 5.60  1.041  1.041  1.042  1.043  1.045 15.16709 17.54815 -6.12630 101.139
 3.91 5.80  1.114  1.114  1.114  1.115  1.117 15.26806 17.74851 -5.92593 113.614
 3.91 6.00  1.189  1.189  1.190  1.191  1.192 15.36903 17.94880 -5.72561 127.627
 3.91 6.25  1.287  1.287  1.288  1.288  1.290 15.49529 18.19907 -5.47527 147.600
 3.91 6.50  1.389  1.389  1.390  1.390  1.392 15.62159 18.44933 -5.22497 170.701
 3.91 6.75  1.495  1.495  1.495  1.496  1.497 15.74804 18.69959 -4.97472 197.447
 3.91 7.00  1.604  1.604  1.604  1.605  1.606 15.87448 18.94988 -4.72446 228.383
 3.91 7.25  1.716  1.716  1.716  1.717  1.718 16.00085 19.20024 -4.47412 264.159
 3.91 7.50  1.830  1.830  1.830  1.831  1.832 16.12710 19.45071 -4.22366 305.524
 3.91 7.75  1.945  1.945  1.945  1.946  1.946 16.25292 19.70167 -3.97266 353.130
 3.91 8.00  2.060  2.060  2.060  2.060  2.061 16.37840 19.95299 -3.72125 407.963
 3.94-2.00 -0.538 -0.538 -0.538 -0.538 -0.537  9.59835  9.63839-14.03588   0.161
 3.94-1.50 -0.533 -0.533 -0.533 -0.532 -0.531 10.09795 10.13862-13.53566   0.285
 3.94-1.00 -0.519 -0.519 -0.518 -0.517 -0.515 10.59781 10.63889-13.03541   0.507
 3.94-0.50 -0.481 -0.481 -0.480 -0.478 -0.475 11.09691 11.13956-12.53477   0.901
 3.94 0.00 -0.395 -0.395 -0.394 -0.392 -0.389 11.59484 11.64167-12.03269   1.599
 3.94 0.50 -0.241 -0.240 -0.239 -0.237 -0.234 12.08778 12.14768-11.52651   2.820
 3.94 1.00 -0.016 -0.015 -0.015 -0.013 -0.011 12.56785 12.66455-11.00975   4.901
 3.94 1.25  0.110  0.110  0.111  0.112  0.114 12.79733 12.93034-10.74392   6.384
 3.94 1.50  0.236  0.236  0.237  0.238  0.240 13.01745 13.20085-10.47340   8.226
 3.94 1.75  0.350  0.351  0.351  0.352  0.354 13.22426 13.47809-10.19640  10.437
 3.94 2.00  0.451  0.451  0.451  0.452  0.453 13.41847 13.75549 -9.91901  13.051
 3.94 2.25  0.533  0.533  0.534  0.534  0.536 13.59844 14.03299 -9.64141  16.056
 3.94 2.50  0.603  0.603  0.604  0.605  0.606 13.76716 14.31048 -9.36381  19.498
 3.94 2.75  0.662  0.662  0.663  0.664  0.665 13.92551 14.58328 -9.09098  23.400
 3.94 3.00  0.716  0.716  0.716  0.717  0.718 14.07628 14.85266 -8.82160  27.837
 3.94 3.20  0.756  0.756  0.756  0.757  0.758 14.19228 15.06517 -8.60913  31.811
 3.94 3.40  0.795  0.795  0.796  0.796  0.798 14.30535 15.27570 -8.39864  36.231
 3.94 3.60  0.835  0.835  0.835  0.836  0.837 14.41560 15.48424 -8.19008  41.132
 3.94 3.80  0.875  0.875  0.876  0.876  0.878 14.52396 15.69129 -7.98300  46.597
 3.94 4.00  0.917  0.917  0.918  0.918  0.920 14.63063 15.89697 -7.77728  52.687
 3.94 4.20  0.961  0.961  0.962  0.962  0.964 14.73597 16.10148 -7.57279  59.482
 3.94 4.40  1.007  1.007  1.008  1.009  1.010 14.84039 16.30517 -7.36913  67.082
 3.94 4.60  1.055  1.056  1.056  1.057  1.059 14.94396 16.50810 -7.16624  75.578
 3.94 4.80  1.106  1.106  1.107  1.108  1.109 15.04698 16.71052 -6.96385  85.097
 3.94 5.00  1.159  1.159  1.160  1.161  1.162 15.14953 16.91243 -6.76196  95.761
 3.94 5.20  1.214  1.215  1.215  1.216  1.218 15.25168 17.11393 -6.56045 107.712
 3.94 5.40  1.273  1.273  1.273  1.274  1.276 15.35361 17.31514 -6.35921 121.124
 3.94 5.60  1.333  1.334  1.334  1.335  1.336 15.45532 17.51610 -6.15820 136.173
 3.94 5.80  1.397  1.397  1.398  1.398  1.400 15.55693 17.71689 -5.95736 153.073
 3.94 6.00  1.464  1.464  1.464  1.465  1.466 15.65849 17.91751 -5.75671 172.059
 3.94 6.25  1.551  1.552  1.552  1.552  1.554 15.78538 18.16804 -5.50624 199.121
 3.94 6.50  1.644  1.644  1.644  1.645  1.646 15.91228 18.41847 -5.25586 230.439
 3.94 6.75  1.741  1.741  1.741  1.742  1.743 16.03935 18.66886 -5.00553 266.716
 3.94 7.00  1.843  1.843  1.843  1.843  1.844 16.16643 18.91918 -4.75523 308.728
 3.94 7.25  1.948  1.949  1.949  1.949  1.950 16.29352 19.16940 -4.50496 357.394
 3.94 7.50  2.058  2.058  2.058  2.059  2.059 16.42062 19.41963 -4.25469 413.731
 3.94 7.75  2.170  2.170  2.171  2.171  2.171 16.54749 19.66997 -4.00436 478.811
 3.94 8.00  2.285  2.285  2.285  2.285  2.286 16.67422 19.92039 -3.75399 554.022
 3.97-2.00 -0.534 -0.534 -0.534 -0.534 -0.534  9.57019  9.60681-14.06753   0.150
 3.97-1.50 -0.535 -0.535 -0.534 -0.534 -0.533 10.06893 10.10789-13.56639   0.267
 3.97-1.00 -0.526 -0.526 -0.525 -0.525 -0.524 10.56820 10.60863-13.06575   0.474
 3.97-0.50 -0.499 -0.499 -0.498 -0.497 -0.495 11.06781 11.10890-12.56543   0.842
 3.97 0.00 -0.431 -0.430 -0.430 -0.428 -0.425 11.56714 11.60959-12.06474   1.496
 3.97 0.50 -0.291 -0.290 -0.289 -0.287 -0.284 12.06521 12.11126-11.56304   2.654
 3.97 1.00 -0.059 -0.058 -0.057 -0.055 -0.052 12.55955 12.61637-11.05794   4.690
 3.97 1.25  0.089  0.090  0.090  0.092  0.095 12.80318 12.87187-10.80249   6.209
 3.97 1.50  0.253  0.254  0.254  0.256  0.258 13.04297 13.13033-10.54409   8.183
 3.97 1.75  0.422  0.422  0.423  0.424  0.426 13.27594 13.39390-10.28049  10.700
 3.97 2.00  0.584  0.585  0.585  0.586  0.588 13.50065 13.66219-10.01216  13.858
 3.97 2.25  0.729  0.729  0.730  0.731  0.732 13.71264 13.93721 -9.73722  17.689
 3.97 2.50  0.853  0.854  0.854  0.855  0.856 13.91233 14.21405 -9.46042  22.263
 3.97 2.75  0.954  0.954  0.954  0.955  0.956 14.09762 14.49219 -9.18228  27.558
 3.97 3.00  1.037  1.037  1.037  1.038  1.039 14.27114 14.77034 -8.90413  33.652
 3.97 3.20  1.092  1.092  1.092  1.093  1.094 14.40169 14.98987 -8.68456  39.108
 3.97 3.40  1.140  1.141  1.141  1.142  1.143 14.52689 15.20736 -8.46702  45.171
 3.97 3.60  1.185  1.185  1.185  1.186  1.187 14.64689 15.42243 -8.25195  51.862
 3.97 3.80  1.226  1.226  1.227  1.227  1.229 14.76325 15.63506 -8.03937  59.295
 3.97 4.00  1.267  1.267  1.267  1.268  1.269 14.87633 15.84559 -7.82886  67.540
 3.97 4.20  1.306  1.306  1.307  1.308  1.309 14.98674 16.05413 -7.62028  76.699
 3.97 4.40  1.347  1.347  1.347  1.348  1.349 15.09531 16.26120 -7.41316  86.914
 3.97 4.60  1.389  1.389  1.389  1.390  1.391 15.20216 16.46684 -7.20749  98.291
 3.97 4.80  1.432  1.432  1.432  1.433  1.434 15.30790 16.67147 -7.00285 111.013
 3.97 5.00  1.477  1.477  1.478  1.478  1.480 15.41263 16.87518 -6.79915 125.236
 3.97 5.20  1.524  1.525  1.525  1.526  1.527 15.51654 17.07810 -6.59623 141.149
 3.97 5.40  1.574  1.574  1.575  1.575  1.577 15.61994 17.28049 -6.39385 158.991
 3.97 5.60  1.626  1.626  1.627  1.627  1.629 15.72283 17.48236 -6.19195 178.988
 3.97 5.80  1.681  1.681  1.682  1.682  1.683 15.82545 17.68391 -5.99038 201.439
 3.97 6.00  1.739  1.739  1.739  1.740  1.741 15.92789 17.88514 -5.78915 226.650
 3.97 6.25  1.816  1.816  1.816  1.816  1.817 16.05576 18.13632 -5.53804 262.568
 3.97 6.50  1.898  1.898  1.898  1.898  1.899 16.18356 18.38721 -5.28718 304.177
 3.97 6.75  1.985  1.985  1.985  1.986  1.986 16.31129 18.63786 -5.03648 352.389
 3.97 7.00  2.078  2.078  2.078  2.079  2.079 16.43902 18.88835 -4.78595 408.259
 3.97 7.25  2.176  2.176  2.176  2.176  2.177 16.56706 19.13870 -4.53561 473.087
 3.97 7.50  2.279  2.279  2.279  2.279  2.280 16.69513 19.38899 -4.28533 548.237
 3.97 7.75  2.386  2.386  2.386  2.386  2.387 16.82320 19.63925 -4.03509 635.341
 3.97 8.00  2.497  2.497  2.497  2.497  2.498 16.95129 19.88947 -3.78489 736.308
 4.00-2.00 -0.518 -0.518 -0.518 -0.518 -0.518  9.54937  9.56820-14.10613   0.142
 4.00-1.50 -0.527 -0.527 -0.527 -0.526 -0.526 10.04376 10.07335-13.60085   0.250
 4.00-1.00 -0.527 -0.527 -0.527 -0.526 -0.526 10.54033 10.57680-13.09756   0.443
 4.00-0.50 -0.511 -0.511 -0.511 -0.510 -0.509 11.03862 11.07809-12.59619   0.787
 4.00 0.00 -0.462 -0.462 -0.461 -0.460 -0.459 11.53795 11.57887-12.09545   1.398
 4.00 0.50 -0.349 -0.348 -0.348 -0.346 -0.343 12.03703 12.07954-11.59482   2.483
 4.00 1.00 -0.140 -0.139 -0.138 -0.136 -0.133 12.53555 12.58115-11.09323   4.407
 4.00 1.25  0.003  0.004  0.005  0.007  0.010 12.78371 12.83287-10.84157   5.864
 4.00 1.50  0.172  0.172  0.173  0.175  0.178 13.03060 13.08565-10.58889   7.792
 4.00 1.75  0.359  0.359  0.360  0.361  0.364 13.27506 13.34046-10.33402  10.325
 4.00 2.00  0.555  0.556  0.556  0.558  0.560 13.51614 13.59791-10.07645  13.630
 4.00 2.25  0.750  0.750  0.751  0.752  0.754 13.75095 13.86003 -9.81424  17.861
 4.00 2.50  0.934  0.934  0.935  0.936  0.937 13.97814 14.12678 -9.54745  23.200
 4.00 2.75  1.096  1.096  1.096  1.097  1.099 14.19340 14.40044 -9.27400  29.726
 4.00 3.00  1.234  1.234  1.234  1.235  1.236 14.39672 14.67669 -8.99783  37.568
 4.00 3.20  1.324  1.324  1.324  1.325  1.326 14.54875 14.89942 -8.77503  44.753
 4.00 3.40  1.401  1.401  1.401  1.402  1.403 14.69305 15.12214 -8.55222  52.839
 4.00 3.60  1.466  1.466  1.466  1.467  1.468 14.82937 15.34385 -8.33045  61.816
 4.00 3.80  1.521  1.521  1.521  1.522  1.523 14.95927 15.56311 -8.11117  71.787
 4.00 4.00  1.570  1.570  1.570  1.571  1.572 15.08350 15.78046 -7.89381  82.826
 4.00 4.20  1.613  1.614  1.614  1.614  1.615 15.20281 15.99483 -7.67945  95.026
 4.00 4.40  1.655  1.655  1.655  1.655  1.656 15.31867 16.20707 -7.46722 108.588
 4.00 4.60  1.694  1.694  1.694  1.695  1.696 15.43124 16.41716 -7.25713 123.611
 4.00 4.80  1.733  1.733  1.734  1.734  1.735 15.54163 16.62552 -7.04875 140.356
 4.00 5.00  1.773  1.773  1.774  1.774  1.775 15.65002 16.83232 -6.84194 159.005
 4.00 5.20  1.814  1.814  1.814  1.815  1.816 15.75676 17.03772 -6.63657 179.801
 4.00 5.40  1.857  1.857  1.857  1.857  1.858 15.86244 17.24215 -6.43216 203.067
 4.00 5.60  1.901  1.902  1.902  1.902  1.903 15.96709 17.44568 -6.22861 229.074
 4.00 5.80  1.949  1.949  1.949  1.949  1.950 16.07113 17.64859 -6.02567 258.227
 4.00 6.00  1.999  1.999  1.999  1.999  2.000 16.17464 17.85089 -5.82333 290.911
 4.00 6.25  2.065  2.065  2.065  2.066  2.066 16.30347 18.10303 -5.57120 337.410
 4.00 6.50  2.137  2.137  2.137  2.138  2.138 16.43201 18.35468 -5.31957 391.215
 4.00 6.75  2.215  2.215  2.215  2.215  2.216 16.56030 18.60601 -5.06828 453.486
 4.00 7.00  2.298  2.298  2.298  2.299  2.299 16.68860 18.85703 -4.81730 525.669
 4.00 7.25  2.388  2.388  2.388  2.388  2.388 16.81701 19.10777 -4.56666 609.422
 4.00 7.50  2.483  2.483  2.483  2.484  2.484 16.94557 19.35832 -4.31614 706.642
 4.00 7.75  2.584  2.584  2.584  2.584  2.585 17.07465 19.60874 -4.06569 819.816
 4.00 8.00  2.690  2.690  2.690  2.690  2.690 17.20412 19.85902 -3.81531 951.513
 4.05-2.00 -0.501 -0.501 -0.500 -0.500 -0.500  9.50826  9.50961-14.16482   0.128
 4.05-1.50 -0.502 -0.502 -0.501 -0.501 -0.501 10.00732 10.01072-13.66374   0.226
 4.05-1.00 -0.504 -0.504 -0.504 -0.503 -0.503 10.50420 10.51362-13.16077   0.401
 4.05-0.50 -0.505 -0.505 -0.504 -0.504 -0.503 10.99900 11.01870-12.65580   0.709
 4.05 0.00 -0.489 -0.489 -0.489 -0.488 -0.487 11.49346 11.52388-12.15046   1.254
 4.05 0.50 -0.428 -0.428 -0.428 -0.427 -0.426 11.98994 12.02694-11.64724   2.220
 4.05 1.00 -0.284 -0.283 -0.283 -0.282 -0.280 12.48827 12.52866-11.14569   3.941
 4.05 1.25 -0.169 -0.169 -0.169 -0.167 -0.165 12.73761 12.77923-10.89512   5.251
 4.05 1.50 -0.025 -0.025 -0.024 -0.023 -0.020 12.98695 13.02979-10.64455   6.997
 4.05 1.75  0.146  0.147  0.147  0.149  0.152 13.23598 13.28068-10.39364   9.320
 4.05 2.00  0.343  0.343  0.344  0.346  0.349 13.48458 13.53199-10.14231  12.408
 4.05 2.25  0.556  0.557  0.557  0.559  0.562 13.73202 13.78424 -9.89001  16.498
 4.05 2.50  0.778  0.779  0.779  0.781  0.783 13.97786 14.03783 -9.63639  21.895
 4.05 2.75  1.002  1.003  1.003  1.004  1.007 14.22059 14.29411 -9.38014  28.954
 4.05 3.00  1.221  1.221  1.221  1.222  1.224 14.45909 14.55364 -9.12068  38.102
 4.05 3.20  1.385  1.385  1.386  1.387  1.388 14.64444 14.76519 -8.90914  47.166
 4.05 3.40  1.537  1.537  1.538  1.538  1.540 14.82410 14.97974 -8.69460  58.005
 4.05 3.60  1.673  1.673  1.673  1.674  1.675 14.99684 15.19853 -8.47580  70.770
 4.05 3.80  1.791  1.791  1.791  1.792  1.792 15.16099 15.41972 -8.25461  85.493
 4.05 4.00  1.893  1.893  1.893  1.893  1.894 15.31723 15.64147 -8.03287 102.343
 4.05 4.20  1.976  1.976  1.976  1.977  1.977 15.46410 15.86358 -7.81080 121.193
 4.05 4.40  2.047  2.047  2.048  2.048  2.049 15.60371 16.08568 -7.58872 142.323
 4.05 4.60  2.108  2.108  2.108  2.109  2.109 15.73596 16.30640 -7.36805 165.728
 4.05 4.80  2.161  2.161  2.161  2.161  2.162 15.86253 16.52413 -7.15037 191.730
 4.05 5.00  2.208  2.208  2.209  2.209  2.209 15.98412 16.73973 -6.93479 220.542
 4.05 5.20  2.252  2.252  2.252  2.252  2.253 16.10153 16.95257 -6.72184 252.452
 4.05 5.40  2.294  2.294  2.294  2.294  2.295 16.21597 17.16343 -6.51088 287.997
 4.05 5.60  2.336  2.336  2.336  2.336  2.336 16.32755 17.37232 -6.30198 327.478
 4.05 5.80  2.378  2.378  2.378  2.378  2.378 16.43730 17.57970 -6.09466 371.589
 4.05 6.00  2.421  2.421  2.421  2.421  2.421 16.54543 17.78569 -5.88874 420.857
 4.05 6.25  2.477  2.477  2.477  2.477  2.478 16.67886 18.04153 -5.63289 490.731
 4.05 6.50  2.537  2.537  2.537  2.538  2.538 16.81104 18.29601 -5.37841 571.409
 4.05 6.75  2.602  2.602  2.602  2.602  2.602 16.94212 18.54938 -5.12511 664.609
 4.05 7.00  2.672  2.672  2.672  2.672  2.672 17.07298 18.80195 -4.87257 772.689
 4.05 7.25  2.747  2.747  2.748  2.748  2.748 17.20372 19.05389 -4.62059 898.062
 4.05 7.50  2.830  2.830  2.830  2.830  2.830 17.33445 19.30535 -4.369061043.776
 4.05 7.75  2.918  2.918  2.918  2.918  2.919 17.46548 19.55649 -4.117891213.740
 4.05 8.00  3.014  3.014  3.014  3.014  3.014 17.59671 19.80726 -3.867101411.850
 4.10-2.00 -0.498 -0.498 -0.498 -0.498 -0.497  9.45894  9.45894-14.21538   0.114
 4.10-1.50 -0.497 -0.497 -0.497 -0.497 -0.496  9.95876  9.95904-13.71534   0.202
 4.10-1.00 -0.496 -0.496 -0.495 -0.495 -0.494 10.45864 10.45924-13.21503   0.360
 4.10-0.50 -0.492 -0.492 -0.491 -0.491 -0.490 10.95794 10.95985-12.71444   0.639
 4.10 0.00 -0.480 -0.480 -0.480 -0.479 -0.478 11.45637 11.46150-12.21282   1.134
 4.10 0.50 -0.448 -0.448 -0.447 -0.447 -0.446 11.95250 11.96520-11.70908   2.008
 4.10 1.00 -0.366 -0.366 -0.365 -0.364 -0.363 12.44685 12.47071-11.20356   3.547
 4.10 1.25 -0.293 -0.293 -0.293 -0.292 -0.290 12.69414 12.72322-10.95103   4.715
 4.10 1.50 -0.194 -0.194 -0.193 -0.192 -0.191 12.94161 12.97548-10.69875   6.270
 4.10 1.75 -0.064 -0.064 -0.064 -0.062 -0.060 13.18993 13.22701-10.44724   8.345
 4.10 2.00  0.095  0.095  0.095  0.097  0.099 13.43854 13.47828-10.19600  11.110
 4.10 2.25  0.283  0.283  0.284  0.285  0.287 13.68743 13.72932 -9.94500  14.796
 4.10 2.50  0.494  0.494  0.495  0.496  0.498 13.93631 13.98037 -9.69401  19.705
 4.10 2.75  0.722  0.723  0.723  0.724  0.727 14.18467 14.23184 -9.44250  26.228
 4.10 3.00  0.960  0.961  0.961  0.962  0.964 14.43233 14.48387 -9.19037  34.883
 4.10 3.20  1.152  1.152  1.152  1.154  1.155 14.62926 14.68658 -8.98768  43.760
 4.10 3.40  1.343  1.343  1.343  1.344  1.346 14.82466 14.89057 -8.78375  54.799
 4.10 3.60  1.530  1.530  1.530  1.531  1.532 15.01806 15.09628 -8.57807  68.464
 4.10 3.80  1.710  1.710  1.710  1.711  1.712 15.20772 15.30471 -8.36963  85.169
 4.10 4.00  1.881  1.881  1.881  1.881  1.882 15.39357 15.51574 -8.15858 105.487
 4.10 4.20  2.036  2.036  2.036  2.036  2.037 15.57276 15.73105 -7.94325 129.655
 4.10 4.40  2.175  2.175  2.176  2.176  2.176 15.74511 15.94892 -7.72536 158.114
 4.10 4.60  2.296  2.296  2.297  2.297  2.297 15.90946 16.17005 -7.50423 191.058
 4.10 4.80  2.399  2.399  2.399  2.399  2.400 16.06502 16.39252 -7.28176 228.547
 4.10 5.00  2.488  2.488  2.488  2.488  2.488 16.21272 16.61500 -7.05928 270.921
 4.10 5.20  2.561  2.561  2.561  2.561  2.561 16.35208 16.83627 -6.83803 318.040
 4.10 5.40  2.625  2.625  2.625  2.625  2.625 16.48517 17.05629 -6.61803 370.676
 4.10 5.60  2.681  2.681  2.681  2.682  2.682 16.61200 17.27430 -6.40007 428.948
 4.10 5.80  2.733  2.733  2.733  2.733  2.733 16.73431 17.48955 -6.18486 493.825
 4.10 6.00  2.782  2.782  2.782  2.782  2.782 16.85266 17.70260 -5.97184 565.936
 4.10 6.25  2.840  2.840  2.840  2.840  2.840 16.99623 17.96556 -5.70879 667.634
 4.10 6.50  2.899  2.899  2.899  2.899  2.900 17.13640 18.22583 -5.44843 784.540
 4.10 6.75  2.960  2.960  2.960  2.960  2.960 17.27387 18.48387 -5.19031 919.066
 4.10 7.00  3.024  3.024  3.024  3.024  3.024 17.40977 18.74013 -4.934051074.712
 4.10 7.25  3.092  3.092  3.092  3.092  3.092 17.54429 18.99486 -4.679471254.722
 4.10 7.50  3.165  3.165  3.165  3.165  3.165 17.67861 19.24846 -4.425971464.564
 4.10 7.75  3.244  3.244  3.244  3.244  3.244 17.81286 19.50128 -4.173161709.382
 4.10 8.00  3.329  3.329  3.329  3.329  3.329 17.94699 19.75320 -3.921181994.888
 4.15-2.00 -0.499 -0.499 -0.499 -0.498 -0.498  9.40892  9.40892-14.26536   0.101
 4.15-1.50 -0.497 -0.497 -0.496 -0.496 -0.495  9.90886  9.90891-13.76548   0.180
 4.15-1.00 -0.494 -0.494 -0.493 -0.493 -0.492 10.40892 10.40909-13.26536   0.321
 4.15-0.50 -0.490 -0.490 -0.489 -0.489 -0.488 10.90875 10.90902-12.76523   0.570
 4.15 0.00 -0.482 -0.482 -0.481 -0.481 -0.479 11.40858 11.40926-12.26512   1.013
 4.15 0.50 -0.460 -0.460 -0.460 -0.459 -0.458 11.90816 11.90961-11.76472   1.801
 4.15 1.00 -0.405 -0.405 -0.404 -0.403 -0.402 12.40705 12.41078-11.26352   3.198
 4.15 1.25 -0.354 -0.354 -0.354 -0.353 -0.351 12.65584 12.66197-11.01235   4.259
 4.15 1.50 -0.284 -0.284 -0.283 -0.282 -0.280 12.90412 12.91366-10.76070   5.669
 4.15 1.75 -0.191 -0.191 -0.190 -0.189 -0.187 13.15159 13.16614-10.50820   7.538
 4.15 2.00 -0.074 -0.074 -0.074 -0.072 -0.070 13.39881 13.41880-10.25555  10.020
 4.15 2.25  0.068  0.068  0.068  0.069  0.072 13.64584 13.67157-10.00281  13.316
 4.15 2.50  0.237  0.237  0.237  0.238  0.241 13.89287 13.92433 -9.75007  17.696
 4.15 2.75  0.432  0.433  0.433  0.434  0.437 14.14069 14.17652 -9.49790  23.537
 4.15 3.00  0.651  0.651  0.651  0.652  0.654 14.38863 14.42846 -9.24596  31.312
 4.15 3.20  0.839  0.839  0.839  0.840  0.842 14.58705 14.62980 -9.04460  39.349
 4.15 3.40  1.034  1.035  1.035  1.036  1.037 14.78547 14.83114 -8.84324  49.450
 4.15 3.60  1.235  1.235  1.235  1.236  1.237 14.98365 15.03273 -8.64164  62.125
 4.15 3.80  1.437  1.437  1.437  1.438  1.439 15.18097 15.23511 -8.43925  77.971
 4.15 4.00  1.636  1.636  1.636  1.636  1.637 15.37749 15.43823 -8.23612  97.767
 4.15 4.20  1.831  1.832  1.832  1.832  1.833 15.57195 15.64300 -8.03136 122.297
 4.15 4.40  2.022  2.022  2.023  2.023  2.024 15.76382 15.84972 -7.82465 152.525
 4.15 4.60  2.204  2.204  2.204  2.204  2.205 15.95232 16.05911 -7.61526 189.487
 4.15 4.80  2.373  2.373  2.373  2.373  2.374 16.13530 16.27188 -7.40247 233.918
 4.15 5.00  2.529  2.529  2.529  2.529  2.529 16.31281 16.48756 -7.18675 286.957
 4.15 5.20  2.663  2.663  2.663  2.663  2.663 16.48190 16.70770 -6.96645 348.618
 4.15 5.40  2.782  2.782  2.782  2.782  2.782 16.64332 16.92864 -6.74546 419.817
 4.15 5.60  2.883  2.883  2.883  2.883  2.883 16.79625 17.15037 -6.52380 500.674
 4.15 5.80  2.968  2.968  2.968  2.968  2.969 16.94121 17.37227 -6.30199 591.665
 4.15 6.00  3.044  3.044  3.044  3.045  3.045 17.07918 17.59417 -6.08019 693.577
 4.15 6.25  3.125  3.125  3.125  3.125  3.125 17.24260 17.86721 -5.80716 837.114
 4.15 6.50  3.199  3.199  3.199  3.199  3.199 17.39863 18.13704 -5.537301001.789
 4.15 6.75  3.268  3.268  3.268  3.268  3.268 17.54847 18.40304 -5.271321190.343
 4.15 7.00  3.336  3.336  3.336  3.336  3.336 17.69417 18.66596 -5.008421407.705
 4.15 7.25  3.405  3.405  3.405  3.405  3.405 17.83645 18.92600 -4.748371658.301
 4.15 7.50  3.476  3.476  3.476  3.476  3.476 17.97708 19.18384 -4.490531949.731
 4.15 7.75  3.551  3.551  3.551  3.551  3.551 18.11686 19.44005 -4.234362290.052
 4.15 8.00  3.631  3.631  3.631  3.631  3.631 18.25551 19.69443 -3.980052686.224
 4.20-2.00 -0.499 -0.499 -0.499 -0.499 -0.499  9.35889  9.35889-14.31542   0.090
 4.20-1.50 -0.498 -0.498 -0.498 -0.498 -0.497  9.85884  9.85890-13.81531   0.161
 4.20-1.00 -0.495 -0.494 -0.494 -0.494 -0.493 10.35889 10.35889-13.31533   0.286
 4.20-0.50 -0.489 -0.489 -0.489 -0.488 -0.487 10.85878 10.85896-12.81531   0.508
 4.20 0.00 -0.481 -0.481 -0.481 -0.480 -0.479 11.35870 11.35908-12.31524   0.903
 4.20 0.50 -0.467 -0.467 -0.467 -0.466 -0.464 11.85866 11.85908-11.81531   1.606
 4.20 1.00 -0.434 -0.433 -0.433 -0.432 -0.430 12.35851 12.35927-11.31507   2.856
 4.20 1.25 -0.402 -0.402 -0.401 -0.400 -0.398 12.60836 12.60943-11.06492   3.807
 4.20 1.50 -0.355 -0.354 -0.354 -0.353 -0.350 12.85812 12.85968-10.81474   5.075
 4.20 1.75 -0.287 -0.287 -0.286 -0.285 -0.283 13.10767 13.11012-10.56427   6.764
 4.20 2.00 -0.197 -0.197 -0.196 -0.195 -0.192 13.35698 13.36078-10.31354   9.015
 4.20 2.25 -0.081 -0.081 -0.080 -0.079 -0.076 13.60594 13.61183-10.06252  12.007
 4.20 2.50  0.059  0.059  0.060  0.061  0.064 13.85443 13.86332 -9.81107  15.982
 4.20 2.75  0.225  0.225  0.225  0.227  0.229 14.10206 14.11562 -9.55872  21.255
 4.20 3.00  0.412  0.412  0.412  0.413  0.416 14.34928 14.36829 -9.30601  28.254
 4.20 3.20  0.576  0.576  0.577  0.578  0.580 14.54674 14.57070 -9.10359  35.465
 4.20 3.40  0.752  0.752  0.752  0.753  0.755 14.74419 14.77310 -8.90118  44.515
 4.20 3.60  0.937  0.938  0.938  0.939  0.941 14.94179 14.97534 -8.69894  55.886
 4.20 3.80  1.132  1.132  1.133  1.133  1.135 15.13953 15.17742 -8.49688  70.174
 4.20 4.00  1.333  1.333  1.334  1.334  1.335 15.33726 15.37949 -8.29482  88.115
 4.20 4.20  1.539  1.539  1.539  1.540  1.541 15.53479 15.58171 -8.09261 110.617
 4.20 4.40  1.746  1.747  1.747  1.747  1.748 15.73202 15.78416 -7.89018 138.817
 4.20 4.60  1.952  1.952  1.952  1.953  1.953 15.92858 15.98722 -7.68714 174.067
 4.20 4.80  2.154  2.154  2.155  2.155  2.155 16.12336 16.19179 -7.48259 217.814
 4.20 5.00  2.353  2.353  2.353  2.353  2.353 16.31639 16.39777 -7.27663 271.999
 4.20 5.20  2.541  2.541  2.541  2.541  2.541 16.50553 16.60659 -7.06774 338.183
 4.20 5.40  2.719  2.719  2.719  2.719  2.720 16.69026 16.81812 -6.85615 418.353
 4.20 5.60  2.882  2.882  2.882  2.882  2.882 16.86952 17.03331 -6.64095 514.277
 4.20 5.80  3.027  3.027  3.027  3.027  3.027 17.04140 17.25152 -6.42277 626.811
 4.20 6.00  3.157  3.157  3.157  3.157  3.157 17.20629 17.47159 -6.20273 757.839
 4.20 6.25  3.290  3.290  3.290  3.290  3.290 17.39997 17.74906 -5.92528 947.157
 4.20 6.50  3.406  3.406  3.406  3.406  3.406 17.58241 18.02653 -5.647821168.530
 4.20 6.75  3.502  3.502  3.502  3.502  3.502 17.75381 18.30122 -5.373131423.384
 4.20 7.00  3.590  3.591  3.591  3.591  3.591 17.91709 18.57334 -5.101001717.741
 4.20 7.25  3.671  3.671  3.671  3.671  3.671 18.07325 18.84136 -4.832982056.270
 4.20 7.50  3.750  3.750  3.750  3.750  3.750 18.22505 19.10619 -4.568152449.083
 4.20 7.75  3.829  3.829  3.829  3.829  3.829 18.37419 19.36820 -4.306142907.769
 4.20 8.00  3.910  3.910  3.910  3.910  3.910 18.52009 19.62726 -4.047063439.314
 4.25-2.00 -0.499 -0.499 -0.499 -0.499 -0.498  9.30899  9.30899-14.36542   0.081
 4.25-1.50 -0.498 -0.498 -0.498 -0.498 -0.497  9.80889  9.80889-13.86550   0.143
 4.25-1.00 -0.496 -0.496 -0.496 -0.496 -0.495 10.30878 10.30899-13.36542   0.255
 4.25-0.50 -0.491 -0.491 -0.491 -0.490 -0.490 10.80882 10.80895-12.86550   0.453
 4.25 0.00 -0.482 -0.482 -0.481 -0.481 -0.480 11.30878 11.30899-12.36532   0.805
 4.25 0.50 -0.468 -0.468 -0.468 -0.468 -0.466 11.80875 11.80902-11.86519   1.431
 4.25 1.00 -0.445 -0.445 -0.445 -0.444 -0.442 12.30878 12.30921-11.36522   2.545
 4.25 1.25 -0.425 -0.425 -0.424 -0.423 -0.421 12.55866 12.55921-11.11522   3.394
 4.25 1.50 -0.394 -0.394 -0.393 -0.392 -0.390 12.80855 12.80922-10.86519   4.526
 4.25 1.75 -0.350 -0.349 -0.349 -0.347 -0.344 13.05845 13.05929-10.61507   6.035
 4.25 2.00 -0.287 -0.287 -0.286 -0.284 -0.281 13.30835 13.30942-10.36492   8.046
 4.25 2.25 -0.202 -0.202 -0.201 -0.200 -0.196 13.55816 13.55961-10.11476  10.727
 4.25 2.50 -0.093 -0.093 -0.092 -0.090 -0.087 13.80787 13.80990 -9.86455  14.300
 4.25 2.75  0.043  0.044  0.044  0.046  0.049 14.05738 14.06038 -9.61403  19.059
 4.25 3.00  0.209  0.209  0.209  0.211  0.214 14.30664 14.31112 -9.36321  25.396
 4.25 3.20  0.360  0.360  0.361  0.362  0.365 14.50575 14.51200 -9.16232  31.938
 4.25 3.40  0.526  0.526  0.526  0.528  0.530 14.70453 14.71320 -8.96114  40.150
 4.25 3.60  0.702  0.703  0.703  0.704  0.706 14.90284 14.91486 -8.75951  50.448
 4.25 3.80  0.887  0.887  0.888  0.889  0.891 15.10068 15.11695 -8.55743  63.355
 4.25 4.00  1.078  1.078  1.078  1.079  1.081 15.29820 15.31931 -8.35507  79.535
 4.25 4.20  1.274  1.274  1.274  1.275  1.276 15.49547 15.52190 -8.15245  99.807
 4.25 4.40  1.474  1.474  1.474  1.475  1.476 15.69257 15.72461 -7.94973 125.225
 4.25 4.60  1.679  1.679  1.679  1.679  1.680 15.88958 15.92738 -7.74695 157.104
 4.25 4.80  1.887  1.887  1.887  1.887  1.888 16.08644 16.13024 -7.54410 197.077
 4.25 5.00  2.097  2.097  2.097  2.098  2.098 16.28308 16.33325 -7.34113 247.170
 4.25 5.20  2.307  2.307  2.307  2.307  2.308 16.47881 16.53699 -7.13741 309.645
 4.25 5.40  2.514  2.514  2.514  2.514  2.514 16.67332 16.74170 -6.93273 387.350
 4.25 5.60  2.715  2.715  2.715  2.715  2.715 16.86596 16.94795 -6.72648 483.516
 4.25 5.80  2.908  2.908  2.908  2.908  2.908 17.05494 17.15683 -6.51758 601.049
 4.25 6.00  3.091  3.091  3.091  3.091  3.091 17.24030 17.36810 -6.30627 744.056
 4.25 6.25  3.295  3.295  3.295  3.295  3.295 17.46316 17.63751 -6.03686 961.648
 4.25 6.50  3.476  3.476  3.476  3.476  3.476 17.67615 17.91041 -5.763971228.833
 4.25 6.75  3.626  3.626  3.626  3.626  3.626 17.87631 18.18715 -5.487231547.457
 4.25 7.00  3.758  3.758  3.758  3.758  3.758 18.06558 18.46390 -5.210491924.366
 4.25 7.25  3.869  3.869  3.869  3.869  3.869 18.24382 18.73906 -4.935402362.407
 4.25 7.50  3.971  3.971  3.971  3.971  3.971 18.41397 19.01241 -4.662142873.342
 4.25 7.75  4.063  4.063  4.063  4.063  4.063 18.57816 19.28169 -4.392803471.177
 4.25 8.00  4.154  4.154  4.154  4.154  4.154 18.73568 19.54765 -4.126684161.591
 4.30-2.00 -0.496 -0.496 -0.496 -0.496 -0.495  9.26007  9.25768-14.41669   0.072
 4.30-1.50 -0.497 -0.497 -0.497 -0.496 -0.496  9.75929  9.75846-13.91578   0.128
 4.30-1.00 -0.496 -0.496 -0.496 -0.495 -0.495 10.25912 10.25888-13.41556   0.227
 4.30-0.50 -0.493 -0.493 -0.493 -0.492 -0.491 10.75884 10.75891-12.91542   0.404
 4.30 0.00 -0.485 -0.485 -0.485 -0.484 -0.483 11.25888 11.25888-12.41533   0.718
 4.30 0.50 -0.470 -0.470 -0.470 -0.469 -0.468 11.75876 11.75899-11.91542   1.276
 4.30 1.00 -0.448 -0.447 -0.447 -0.447 -0.446 12.25864 12.25912-11.41522   2.269
 4.30 1.25 -0.432 -0.432 -0.432 -0.431 -0.430 12.50861 12.50913-11.16513   3.025
 4.30 1.50 -0.411 -0.411 -0.410 -0.410 -0.408 12.75861 12.75914-10.91507   4.034
 4.30 1.75 -0.380 -0.380 -0.380 -0.379 -0.377 13.00862 13.00925-10.66509   5.379
 4.30 2.00 -0.337 -0.337 -0.336 -0.335 -0.333 13.25864 13.25935-10.41510   7.173
 4.30 2.25 -0.276 -0.276 -0.276 -0.274 -0.272 13.50851 13.50936-10.16510   9.564
 4.30 2.50 -0.195 -0.195 -0.194 -0.193 -0.190 13.75838 13.75937 -9.91507  12.752
 4.30 2.75 -0.090 -0.089 -0.089 -0.087 -0.084 14.00827 14.00957 -9.66481  17.003
 4.30 3.00  0.042  0.043  0.043  0.045  0.049 14.25816 14.25983 -9.41454  22.670
 4.30 3.20  0.170  0.170  0.171  0.173  0.176 14.45790 14.46004 -9.21433  28.533
 4.30 3.40  0.316  0.316  0.317  0.318  0.322 14.65754 14.66029 -9.01411  35.908
 4.30 3.60  0.479  0.479  0.480  0.481  0.484 14.85709 14.86063 -8.81377  45.184
 4.30 3.80  0.657  0.657  0.657  0.659  0.662 15.05651 15.06120 -8.61314  56.845
 4.30 4.00  0.845  0.845  0.846  0.847  0.849 15.25576 15.26198 -8.41229  71.499
 4.30 4.20  1.042  1.042  1.042  1.043  1.045 15.45455 15.46317 -8.21112  89.887
 4.30 4.40  1.244  1.244  1.244  1.244  1.246 15.65293 15.66474 -8.00959 112.951
 4.30 4.60  1.448  1.448  1.448  1.448  1.449 15.85085 15.86676 -7.80757 141.855
 4.30 4.80  1.653  1.654  1.654  1.654  1.655 16.04828 16.06922 -7.60507 178.052
 4.30 5.00  1.860  1.861  1.861  1.861  1.862 16.24527 16.27207 -7.40220 223.374
 4.30 5.20  2.069  2.070  2.070  2.070  2.070 16.44192 16.47519 -7.19914 280.134
 4.30 5.40  2.281  2.281  2.281  2.281  2.281 16.63805 16.67874 -6.99569 351.112
 4.30 5.60  2.494  2.494  2.494  2.494  2.494 16.83374 16.88267 -6.79183 439.842
 4.30 5.80  2.706  2.706  2.706  2.706  2.706 17.02861 17.08728 -6.58722 550.448
 4.30 6.00  2.914  2.914  2.914  2.915  2.915 17.22246 17.29270 -6.38174 688.035
 4.30 6.25  3.165  3.165  3.165  3.165  3.165 17.46094 17.55219 -6.12223 905.439
 4.30 6.50  3.403  3.403  3.403  3.403  3.403 17.69452 17.81491 -5.859491184.864
 4.30 6.75  3.615  3.615  3.615  3.615  3.615 17.91976 18.08306 -5.591381535.559
 4.30 7.00  3.807  3.807  3.807  3.807  3.807 18.13609 18.35468 -5.319761969.734
 4.30 7.25  3.968  3.968  3.968  3.968  3.968 18.34049 18.63032 -5.044022492.564
 4.30 7.50  4.112  4.112  4.112  4.112  4.112 18.53479 18.90596 -4.768283117.686
 4.30 7.75  4.235  4.235  4.235  4.235  4.235 18.71980 19.18042 -4.493863857.796
 4.30 8.00  4.350  4.350  4.350  4.350  4.350 18.89526 19.45408 -4.220334721.092
 4.35-2.00 -0.471 -0.471 -0.471 -0.470 -0.470  9.22246  9.19507-14.47939   0.067
 4.35-1.50 -0.480 -0.480 -0.480 -0.479 -0.478  9.71767  9.69992-13.97429   0.117
 4.35-1.00 -0.488 -0.488 -0.488 -0.487 -0.486 10.21299 10.20466-13.46954   0.205
 4.35-0.50 -0.491 -0.490 -0.490 -0.490 -0.489 10.71037 10.70731-12.96698   0.362
 4.35 0.00 -0.487 -0.487 -0.487 -0.486 -0.485 11.20925 11.20844-12.46585   0.641
 4.35 0.50 -0.475 -0.475 -0.475 -0.474 -0.473 11.70893 11.70885-11.96537   1.138
 4.35 1.00 -0.451 -0.451 -0.451 -0.450 -0.449 12.20871 12.20898-11.46534   2.022
 4.35 1.25 -0.435 -0.435 -0.435 -0.434 -0.433 12.45868 12.45904-11.21536   2.696
 4.35 1.50 -0.415 -0.415 -0.415 -0.415 -0.413 12.70868 12.70910-10.96537   3.596
 4.35 1.75 -0.391 -0.391 -0.390 -0.390 -0.389 12.95869 12.95917-10.71523   4.795
 4.35 2.00 -0.358 -0.358 -0.358 -0.357 -0.356 13.20871 13.20925-10.46509   6.393
 4.35 2.25 -0.314 -0.314 -0.314 -0.313 -0.312 13.45861 13.45926-10.21503   8.525
 4.35 2.50 -0.254 -0.254 -0.254 -0.253 -0.251 13.70851 13.70927 -9.96497  11.367
 4.35 2.75 -0.174 -0.174 -0.174 -0.173 -0.170 13.95847 13.95939 -9.71491  15.157
 4.35 3.00 -0.070 -0.070 -0.069 -0.068 -0.065 14.20844 14.20951 -9.46483  20.211
 4.35 3.20  0.033  0.033  0.034  0.035  0.038 14.40826 14.40962 -9.26475  25.441
 4.35 3.40  0.156  0.156  0.157  0.158  0.162 14.60809 14.60972 -9.06464  32.024
 4.35 3.60  0.298  0.299  0.299  0.300  0.304 14.80792 14.80986 -8.86450  40.308
 4.35 3.80  0.458  0.459  0.459  0.460  0.464 15.00778 15.01006 -8.66431  50.735
 4.35 4.00  0.633  0.633  0.634  0.635  0.638 15.20763 15.21032 -8.46407  63.855
 4.35 4.20  0.821  0.822  0.822  0.823  0.826 15.40726 15.41065 -8.26374  80.356
 4.35 4.40  1.019  1.019  1.019  1.020  1.022 15.60671 15.61111 -8.06326 101.106
 4.35 4.60  1.223  1.223  1.224  1.224  1.226 15.80602 15.81176 -7.86262 127.188
 4.35 4.80  1.433  1.433  1.433  1.433  1.435 16.00508 16.01275 -7.66167 159.946
 4.35 5.00  1.645  1.645  1.645  1.645  1.646 16.20385 16.21405 -7.46042 201.070
 4.35 5.20  1.858  1.859  1.859  1.859  1.860 16.40204 16.41577 -7.25866 252.599
 4.35 5.40  2.073  2.073  2.073  2.073  2.073 16.59967 16.61797 -7.05639 317.131
 4.35 5.60  2.287  2.287  2.287  2.287  2.288 16.79672 16.82071 -6.85359 397.893
 4.35 5.80  2.502  2.502  2.502  2.502  2.502 16.99305 17.02410 -6.65016 498.824
 4.35 6.00  2.718  2.718  2.718  2.718  2.718 17.18865 17.22814 -6.44612 624.828
 4.35 6.25  2.987  2.987  2.987  2.987  2.987 17.43211 17.48405 -6.19026 826.958
 4.35 6.50  3.251  3.251  3.251  3.251  3.251 17.67367 17.74147 -5.932931092.034
 4.35 6.75  3.503  3.503  3.503  3.503  3.503 17.91184 18.00143 -5.672931436.462
 4.35 7.00  3.743  3.743  3.743  3.743  3.743 18.14551 18.26435 -5.409941879.760
 4.35 7.25  3.958  3.958  3.958  3.958  3.958 18.37130 18.53197 -5.142362437.914
 4.35 7.50  4.154  4.154  4.154  4.154  4.154 18.58894 18.80277 -4.871603132.394
 4.35 7.75  4.322  4.322  4.322  4.322  4.322 18.79634 19.07603 -4.598363977.283
 4.35 8.00  4.475  4.475  4.475  4.475  4.475 18.99419 19.35199 -4.322394994.742
 4.40-2.00 -0.462 -0.462 -0.462 -0.462 -0.461  9.17696  9.14019-14.53417   0.060
 4.40-1.50 -0.462 -0.462 -0.462 -0.462 -0.461  9.67633  9.64068-14.03367   0.107
 4.40-1.00 -0.464 -0.464 -0.464 -0.463 -0.462 10.17522 10.14208-13.53224   0.190
 4.40-0.50 -0.468 -0.468 -0.468 -0.468 -0.466 10.67201 10.64532-13.02900   0.335
 4.40 0.00 -0.474 -0.474 -0.473 -0.473 -0.471 11.16732 11.15045-12.52389   0.586
 4.40 0.50 -0.473 -0.473 -0.473 -0.472 -0.470 11.66266 11.65504-12.01927   1.027
 4.40 1.00 -0.457 -0.457 -0.457 -0.456 -0.455 12.16017 12.15776-11.51670   1.811
 4.40 1.25 -0.442 -0.442 -0.442 -0.441 -0.440 12.40957 12.40826-11.26613   2.409
 4.40 1.50 -0.422 -0.422 -0.422 -0.421 -0.420 12.65916 12.65858-11.01574   3.208
 4.40 1.75 -0.397 -0.397 -0.397 -0.396 -0.395 12.90885 12.90881-10.76546   4.275
 4.40 2.00 -0.367 -0.367 -0.366 -0.366 -0.364 13.15866 13.15897-10.51527   5.699
 4.40 2.25 -0.329 -0.329 -0.329 -0.328 -0.327 13.40862 13.40907-10.26522   7.599
 4.40 2.50 -0.282 -0.282 -0.281 -0.281 -0.279 13.65858 13.65915-10.01516  10.132
 4.40 2.75 -0.219 -0.219 -0.219 -0.218 -0.217 13.90847 13.90921 -9.76508  13.510
 4.40 3.00 -0.137 -0.137 -0.137 -0.136 -0.135 14.15836 14.15927 -9.51499  18.015
 4.40 3.20 -0.054 -0.054 -0.054 -0.053 -0.051 14.35830 14.35936 -9.31492  22.677
 4.40 3.40  0.046  0.046  0.046  0.047  0.049 14.55823 14.55948 -9.11484  28.546
 4.40 3.60  0.167  0.167  0.167  0.168  0.170 14.75817 14.75960 -8.91472  35.933
 4.40 3.80  0.307  0.307  0.307  0.308  0.311 14.95812 14.95973 -8.71457  45.232
 4.40 4.00  0.465  0.465  0.466  0.467  0.469 15.15806 15.15987 -8.51442  56.937
 4.40 4.20  0.640  0.640  0.640  0.641  0.644 15.35785 15.36002 -8.31427  71.665
 4.40 4.40  0.827  0.827  0.827  0.828  0.830 15.55759 15.56020 -8.11411  90.198
 4.40 4.60  1.024  1.024  1.024  1.025  1.027 15.75730 15.76045 -7.91389 113.519
 4.40 4.80  1.229  1.229  1.229  1.230  1.231 15.95696 15.96085 -7.71351 142.857
 4.40 5.00  1.439  1.439  1.439  1.440  1.441 16.15655 16.16137 -7.51300 179.758
 4.40 5.20  1.653  1.653  1.654  1.654  1.655 16.35591 16.36199 -7.31239 226.134
 4.40 5.40  1.871  1.871  1.871  1.871  1.872 16.55501 16.56283 -7.11154 284.389
 4.40 5.60  2.090  2.090  2.090  2.090  2.091 16.75381 16.76398 -6.91037 357.523
 4.40 5.80  2.310  2.310  2.310  2.310  2.311 16.95209 16.96569 -6.70864 449.201
 4.40 6.00  2.531  2.531  2.531  2.531  2.532 17.14983 17.16791 -6.50640 564.040
 4.40 6.25  2.807  2.807  2.807  2.807  2.808 17.39582 17.42168 -6.25272 748.696
 4.40 6.50  3.084  3.084  3.084  3.084  3.084 17.64038 17.67669 -5.99783 992.182
 4.40 6.75  3.356  3.356  3.356  3.356  3.356 17.88329 17.93316 -5.741401312.386
 4.40 7.00  3.621  3.621  3.621  3.621  3.621 18.12385 18.19145 -5.483071731.282
 4.40 7.25  3.870  3.870  3.870  3.870  3.870 18.36099 18.45210 -5.222262274.696
 4.40 7.50  4.108  4.108  4.108  4.108  4.108 18.59362 18.71559 -4.958612973.127
 4.40 7.75  4.320  4.320  4.320  4.320  4.320 18.81862 18.98303 -4.691243852.369
 4.40 8.00  4.517  4.517  4.517  4.517  4.517 19.03703 19.25406 -4.420454954.153
 4.45-2.00 -0.461 -0.461 -0.461 -0.461 -0.460  9.12710  9.08991-14.58436   0.054
 4.45-1.50 -0.461 -0.461 -0.461 -0.461 -0.459  9.62696  9.58995-14.08434   0.096
 4.45-1.00 -0.461 -0.461 -0.461 -0.460 -0.459 10.12678 10.09026-13.58419   0.171
 4.45-0.50 -0.460 -0.460 -0.460 -0.459 -0.458 10.62665 10.59028-13.08402   0.303
 4.45 0.00 -0.459 -0.459 -0.458 -0.458 -0.457 11.12613 11.09096-12.58319   0.538
 4.45 0.50 -0.456 -0.456 -0.456 -0.455 -0.454 11.62418 11.59306-12.08129   0.951
 4.45 1.00 -0.448 -0.448 -0.448 -0.447 -0.445 12.12024 12.09726-11.57708   1.669
 4.45 1.25 -0.439 -0.439 -0.438 -0.438 -0.436 12.36773 12.34988-11.32447   2.207
 4.45 1.50 -0.424 -0.424 -0.423 -0.423 -0.421 12.61521 12.60249-11.07186   2.919
 4.45 1.75 -0.403 -0.402 -0.402 -0.401 -0.399 12.86306 12.85471-10.81973   3.865
 4.45 2.00 -0.374 -0.374 -0.373 -0.373 -0.371 13.11126 13.10653-10.56799   5.124
 4.45 2.25 -0.338 -0.338 -0.337 -0.337 -0.335 13.36018 13.35754-10.31688   6.807
 4.45 2.50 -0.294 -0.293 -0.293 -0.292 -0.291 13.60949 13.60821-10.06611   9.054
 4.45 2.75 -0.239 -0.239 -0.239 -0.238 -0.237 13.85917 13.85860 -9.81560  12.056
 4.45 3.00 -0.171 -0.171 -0.171 -0.170 -0.169 14.10890 14.10890 -9.56527  16.063
 4.45 3.20 -0.103 -0.103 -0.103 -0.102 -0.101 14.30869 14.30912 -9.36514  20.217
 4.45 3.40 -0.020 -0.020 -0.020 -0.019 -0.018 14.50850 14.50931 -9.16501  25.447
 4.45 3.60  0.080  0.080  0.080  0.081  0.082 14.70838 14.70942 -8.96488  32.032
 4.45 3.80  0.200  0.200  0.200  0.201  0.203 14.90830 14.90950 -8.76476  40.321
 4.45 4.00  0.340  0.340  0.340  0.341  0.343 15.10823 15.10958 -8.56463  50.756
 4.45 4.20  0.499  0.499  0.499  0.500  0.501 15.30807 15.30974 -8.36452  63.888
 4.45 4.40  0.673  0.673  0.673  0.674  0.676 15.50788 15.50992 -8.16440  80.416
 4.45 4.60  0.861  0.861  0.861  0.861  0.863 15.70768 15.71012 -7.96426 101.218
 4.45 4.80  1.058  1.058  1.058  1.059  1.060 15.90746 15.91034 -7.76407 127.399
 4.45 5.00  1.263  1.263  1.263  1.264  1.265 16.10721 16.11059 -7.56384 160.347
 4.45 5.20  1.474  1.474  1.474  1.474  1.475 16.30693 16.31087 -7.36355 201.794
 4.45 5.40  1.688  1.688  1.688  1.689  1.689 16.50658 16.51121 -7.16316 253.924
 4.45 5.60  1.906  1.906  1.906  1.907  1.907 16.70612 16.71166 -6.96266 319.483
 4.45 5.80  2.127  2.127  2.127  2.127  2.128 16.90543 16.91235 -6.76193 401.882
 4.45 6.00  2.350  2.350  2.350  2.350  2.350 17.10449 17.11328 -6.56098 505.406
 4.45 6.25  2.630  2.630  2.630  2.631  2.631 17.35271 17.36501 -6.30927 672.591
 4.45 6.50  2.913  2.913  2.913  2.913  2.913 17.60010 17.61753 -6.05680 894.222
 4.45 6.75  3.196  3.196  3.196  3.196  3.196 17.84615 17.87129 -5.803061187.140
 4.45 7.00  3.478  3.478  3.478  3.478  3.478 18.09061 18.12646 -5.547911573.141
 4.45 7.25  3.751  3.751  3.751  3.751  3.751 18.33299 18.38336 -5.290992079.404
 4.45 7.50  4.013  4.013  4.013  4.013  4.013 18.57264 18.64237 -5.031982739.893
 4.45 7.75  4.256  4.256  4.256  4.256  4.256 18.80793 18.90426 -4.770143592.609
 4.45 8.00  4.487  4.487  4.487  4.487  4.487 19.03941 19.16879 -4.505714690.461
 4.50-2.00 -0.461 -0.461 -0.461 -0.461 -0.460  9.07700  9.03981-14.63433   0.048
 4.50-1.50 -0.461 -0.461 -0.461 -0.460 -0.459  9.57703  9.53995-14.13436   0.086
 4.50-1.00 -0.460 -0.460 -0.460 -0.460 -0.458 10.07700 10.03981-13.63433   0.152
 4.50-0.50 -0.460 -0.460 -0.459 -0.459 -0.458 10.57692 10.53995-13.13436   0.270
 4.50 0.00 -0.458 -0.458 -0.458 -0.458 -0.456 11.07700 11.04021-12.63414   0.481
 4.50 0.50 -0.455 -0.455 -0.455 -0.454 -0.453 11.57669 11.54033-12.13407   0.854
 4.50 1.00 -0.447 -0.447 -0.447 -0.446 -0.444 12.07628 12.04100-11.63358   1.517
 4.50 1.25 -0.439 -0.439 -0.439 -0.438 -0.436 12.32577 12.29149-11.38301   2.020
 4.50 1.50 -0.426 -0.426 -0.426 -0.425 -0.423 12.57496 12.54220-11.13212   2.686
 4.50 1.75 -0.407 -0.407 -0.406 -0.405 -0.404 12.82365 12.79373-10.88066   3.567
 4.50 2.00 -0.378 -0.378 -0.378 -0.377 -0.375 13.07188 13.04571-10.62875   4.729
 4.50 2.25 -0.341 -0.341 -0.341 -0.340 -0.338 13.31940 13.29822-10.37618   6.255
 4.50 2.50 -0.296 -0.296 -0.296 -0.295 -0.293 13.56691 13.55072-10.12361   8.273
 4.50 2.75 -0.243 -0.243 -0.243 -0.242 -0.241 13.81450 13.80312 -9.87116  10.946
 4.50 3.00 -0.181 -0.181 -0.181 -0.180 -0.178 14.06221 14.05538 -9.61889  14.489
 4.50 3.20 -0.122 -0.121 -0.121 -0.121 -0.119 14.26103 14.25662 -9.41770  18.164
 4.50 3.40 -0.051 -0.051 -0.051 -0.050 -0.049 14.46013 14.45760 -9.21677  22.792
 4.50 3.60  0.033  0.033  0.033  0.034  0.035 14.65955 14.65830 -9.01606  28.629
 4.50 3.80  0.135  0.135  0.135  0.136  0.137 14.85914 14.85882 -8.81551  35.988
 4.50 4.00  0.256  0.256  0.256  0.257  0.258 15.05881 15.05918 -8.61511  45.265
 4.50 4.20  0.397  0.397  0.397  0.398  0.399 15.25849 15.25938 -8.41491  56.966
 4.50 4.40  0.556  0.556  0.556  0.557  0.558 15.45823 15.45957 -8.21473  71.697
 4.50 4.60  0.731  0.731  0.731  0.732  0.733 15.65802 15.65980 -8.01455  90.242
 4.50 4.80  0.919  0.919  0.919  0.920  0.921 15.85784 15.86006 -7.81438 113.585
 4.50 5.00  1.117  1.117  1.117  1.117  1.118 16.05767 16.06032 -7.61421 142.966
 4.50 5.20  1.322  1.322  1.322  1.322  1.323 16.25744 16.26049 -7.41399 179.937
 4.50 5.40  1.532  1.532  1.532  1.533  1.533 16.45717 16.46066 -7.21372 226.457
 4.50 5.60  1.747  1.747  1.747  1.747  1.748 16.65688 16.66090 -7.01341 284.992
 4.50 5.80  1.965  1.965  1.965  1.965  1.966 16.85655 16.86131 -6.81305 358.631
 4.50 6.00  2.186  2.186  2.186  2.186  2.186 17.05614 17.06183 -6.61261 451.255
 4.50 6.25  2.465  2.465  2.465  2.465  2.465 17.30527 17.31262 -6.36178 601.174
 4.50 6.50  2.745  2.745  2.745  2.745  2.745 17.55400 17.56372 -6.11059 800.557
 4.50 6.75  3.031  3.031  3.031  3.031  3.031 17.80221 17.81554 -5.858811065.335
 4.50 7.00  3.319  3.319  3.319  3.319  3.319 18.04961 18.06819 -5.606251416.326
 4.50 7.25  3.605  3.605  3.605  3.605  3.605 18.29544 18.32203 -5.352361879.799
 4.50 7.50  3.887  3.887  3.887  3.887  3.887 18.53945 18.57738 -5.096912489.846
 4.50 7.75  4.155  4.155  4.155  4.155  4.155 18.78071 18.83507 -4.839173287.114
 4.50 8.00  4.408  4.408  4.408  4.408  4.408 19.01953 19.09482 -4.579384327.292
 4.55-2.00 -0.461 -0.461 -0.461 -0.461 -0.460  9.02694  8.98998-14.68445   0.043
 4.55-1.50 -0.461 -0.461 -0.461 -0.460 -0.459  9.52699  9.48996-14.18436   0.076
 4.55-1.00 -0.460 -0.460 -0.460 -0.460 -0.459 10.02694  9.98998-13.68424   0.136
 4.55-0.50 -0.460 -0.460 -0.460 -0.459 -0.458 10.52699 10.48996-13.18436   0.241
 4.55 0.00 -0.459 -0.459 -0.458 -0.458 -0.457 11.02694 10.99003-12.68424   0.429
 4.55 0.50 -0.457 -0.456 -0.456 -0.456 -0.454 11.52699 11.49010-12.18429   0.762
 4.55 1.00 -0.452 -0.452 -0.451 -0.451 -0.449 12.02694 11.99016-11.68424   1.355
 4.55 1.25 -0.447 -0.447 -0.447 -0.446 -0.444 12.27686 12.24020-11.43415   1.806
 4.55 1.50 -0.439 -0.439 -0.439 -0.438 -0.436 12.52673 12.49024-11.18402   2.408
 4.55 1.75 -0.426 -0.426 -0.426 -0.425 -0.423 12.77648 12.74046-10.93386   3.209
 4.55 2.00 -0.406 -0.406 -0.406 -0.405 -0.403 13.02612 12.99083-10.68361   4.276
 4.55 2.25 -0.376 -0.376 -0.375 -0.375 -0.372 13.27568 13.24133-10.43311   5.693
 4.55 2.50 -0.332 -0.332 -0.332 -0.331 -0.329 13.52505 13.49206-10.18230   7.574
 4.55 2.75 -0.273 -0.273 -0.273 -0.272 -0.270 13.77397 13.74337 -9.93100  10.061
 4.55 3.00 -0.199 -0.199 -0.199 -0.198 -0.196 14.02243 13.99515 -9.67923  13.346
 4.55 3.20 -0.131 -0.131 -0.131 -0.130 -0.128 14.22044 14.19710 -9.47721  16.696
 4.55 3.40 -0.056 -0.056 -0.056 -0.055 -0.054 14.41845 14.39909 -9.27519  20.886
 4.55 3.60  0.025  0.025  0.025  0.026  0.027 14.61649 14.60112 -9.07318  26.125
 4.55 3.80  0.117  0.117  0.117  0.118  0.119 14.81462 14.80315 -8.87117  32.677
 4.55 4.00  0.222  0.222  0.222  0.223  0.224 15.01284 15.00518 -8.66918  40.873
 4.55 4.20  0.344  0.344  0.344  0.344  0.346 15.21142 15.20658 -8.46782  51.211
 4.55 4.40  0.483  0.483  0.483  0.484  0.485 15.41024 15.40768 -8.26673  64.230
 4.55 4.60  0.640  0.640  0.640  0.641  0.642 15.60934 15.60845 -8.06589  80.661
 4.55 4.80  0.813  0.813  0.814  0.814  0.815 15.80867 15.80901 -7.86523 101.391
 4.55 5.00  0.999  0.999  0.999  0.999  1.000 16.00817 16.00945 -7.66474 127.523
 4.55 5.20  1.195  1.195  1.196  1.196  1.197 16.20785 16.20978 -7.46447 160.475
 4.55 5.40  1.399  1.399  1.399  1.399  1.400 16.40757 16.41011 -7.26419 201.948
 4.55 5.60  1.608  1.608  1.608  1.609  1.609 16.60734 16.61045 -7.06389 254.146
 4.55 5.80  1.822  1.822  1.822  1.822  1.823 16.80712 16.81079 -6.86353 319.838
 4.55 6.00  2.039  2.039  2.039  2.039  2.039 17.00690 17.01115 -6.66314 402.510
 4.55 6.25  2.314  2.314  2.314  2.314  2.314 17.25627 17.26166 -6.41263 536.421
 4.55 6.50  2.591  2.591  2.591  2.591  2.592 17.50542 17.51229 -6.16203 714.746
 4.55 6.75  2.871  2.871  2.871  2.871  2.871 17.75440 17.76321 -5.91109 952.081
 4.55 7.00  3.157  3.157  3.157  3.157  3.157 18.00303 18.01452 -5.659761267.669
 4.55 7.25  3.444  3.444  3.444  3.444  3.444 18.25099 18.26653 -5.407771686.427
 4.55 7.50  3.732  3.732  3.732  3.732  3.732 18.49804 18.51944 -5.154902241.035
 4.55 7.75  4.012  4.012  4.012  4.012  4.012 18.74324 18.77393 -4.900412971.954
 4.55 8.00  4.285  4.285  4.285  4.285  4.285 18.98691 19.02979 -4.644553934.445
 4.60-2.00 -0.461 -0.461 -0.461 -0.460 -0.459  8.97708  8.93997-14.73448   0.038
 4.60-1.50 -0.461 -0.461 -0.460 -0.460 -0.459  9.47698  9.43996-14.23441   0.068
 4.60-1.00 -0.460 -0.460 -0.460 -0.460 -0.458  9.97704  9.93997-13.73424   0.121
 4.60-0.50 -0.460 -0.460 -0.460 -0.459 -0.458 10.47698 10.43996-13.23441   0.215
 4.60 0.00 -0.459 -0.459 -0.459 -0.458 -0.457 10.97704 10.94002-12.73424   0.382
 4.60 0.50 -0.458 -0.458 -0.458 -0.457 -0.456 11.47698 11.43996-12.23433   0.679
 4.60 1.00 -0.455 -0.455 -0.455 -0.454 -0.453 11.97699 11.94007-11.73424   1.208
 4.60 1.25 -0.452 -0.452 -0.452 -0.451 -0.449 12.22691 12.19009-11.48425   1.610
 4.60 1.50 -0.447 -0.447 -0.447 -0.446 -0.445 12.47683 12.44012-11.23426   2.147
 4.60 1.75 -0.440 -0.440 -0.440 -0.439 -0.437 12.72684 12.69016-10.98413   2.863
 4.60 2.00 -0.428 -0.428 -0.428 -0.427 -0.425 12.97685 12.94022-10.73400   3.817
 4.60 2.25 -0.410 -0.409 -0.409 -0.408 -0.406 13.22671 13.19031-10.48398   5.089
 4.60 2.50 -0.381 -0.380 -0.380 -0.379 -0.377 13.47654 13.44044-10.23396   6.783
 4.60 2.75 -0.338 -0.337 -0.337 -0.336 -0.334 13.72637 13.69065 -9.98371   9.040
 4.60 3.00 -0.277 -0.277 -0.277 -0.276 -0.273 13.97617 13.94097 -9.73330  12.044
 4.60 3.20 -0.214 -0.214 -0.214 -0.213 -0.210 14.17577 14.14137 -9.53288  15.143
 4.60 3.40 -0.137 -0.137 -0.137 -0.136 -0.133 14.37517 14.34196 -9.33230  19.029
 4.60 3.60 -0.045 -0.045 -0.044 -0.043 -0.041 14.57435 14.54283 -9.13144  23.893
 4.60 3.80  0.061  0.061  0.062  0.062  0.064 14.77323 14.74407 -8.93018  29.969
 4.60 4.00  0.181  0.181  0.181  0.181  0.183 14.97183 14.94562 -8.72862  37.555
 4.60 4.20  0.310  0.310  0.311  0.311  0.312 15.16985 15.14772 -8.52658  46.970
 4.60 4.40  0.449  0.449  0.450  0.450  0.451 15.36786 15.34982 -8.32454  58.745
 4.60 4.60  0.597  0.597  0.597  0.598  0.599 15.56588 15.55189 -8.12250  73.473
 4.60 4.80  0.755  0.755  0.755  0.755  0.756 15.76394 15.75389 -7.92049  91.898
 4.60 5.00  0.923  0.923  0.923  0.923  0.924 15.96204 15.95578 -7.71851 114.952
 4.60 5.20  1.102  1.103  1.103  1.103  1.104 16.16067 16.15711 -7.51719 144.013
 4.60 5.40  1.291  1.291  1.291  1.292  1.292 16.35955 16.35819 -7.31611 180.621
 4.60 5.60  1.489  1.489  1.489  1.489  1.489 16.55874 16.55902 -7.11527 226.930
 4.60 5.80  1.693  1.693  1.693  1.693  1.694 16.75811 16.75970 -6.91457 285.424
 4.60 6.00  1.902  1.902  1.903  1.903  1.903 16.95756 16.96028 -6.71399 359.076
 4.60 6.25  2.170  2.170  2.170  2.170  2.170 17.20696 17.21089 -6.46344 478.499
 4.60 6.50  2.442  2.442  2.442  2.442  2.442 17.45637 17.46150 -6.21289 637.640
 4.60 6.75  2.711  2.711  2.711  2.711  2.711 17.70566 17.71219 -5.96218 849.626
 4.60 7.00  2.990  2.990  2.990  2.990  2.990 17.95482 17.96299 -5.711301131.930
 4.60 7.25  3.271  3.271  3.271  3.271  3.271 18.20362 18.21411 -5.460161507.356
 4.60 7.50  3.555  3.555  3.555  3.555  3.555 18.45194 18.46568 -5.208592006.180
 4.60 7.75  3.836  3.836  3.836  3.836  3.836 18.69930 18.71824 -4.956032667.181
 4.60 8.00  4.113  4.113  4.113  4.113  4.113 18.94586 18.97160 -4.702683542.748
 4.65-2.00 -0.460 -0.460 -0.460 -0.460 -0.458  8.92706  8.88997-14.78436   0.034
 4.65-1.50 -0.460 -0.460 -0.460 -0.460 -0.458  9.42700  9.38987-14.28441   0.061
 4.65-1.00 -0.460 -0.460 -0.460 -0.459 -0.458  9.92706  9.88997-13.78436   0.108
 4.65-0.50 -0.460 -0.459 -0.459 -0.459 -0.457 10.42700 10.39005-13.28433   0.191
 4.65 0.00 -0.459 -0.459 -0.459 -0.458 -0.457 10.92706 10.89003-12.78436   0.340
 4.65 0.50 -0.458 -0.458 -0.458 -0.457 -0.456 11.42700 11.39005-12.28433   0.605
 4.65 1.00 -0.456 -0.456 -0.456 -0.456 -0.454 11.92701 11.89009-11.78436   1.076
 4.65 1.25 -0.455 -0.455 -0.455 -0.454 -0.453 12.17701 12.14007-11.53431   1.435
 4.65 1.50 -0.452 -0.452 -0.452 -0.452 -0.450 12.42700 12.39005-11.28425   1.914
 4.65 1.75 -0.448 -0.448 -0.448 -0.447 -0.446 12.67695 12.64010-11.03417   2.552
 4.65 2.00 -0.442 -0.442 -0.441 -0.441 -0.439 12.92691 12.89014-10.78410   3.403
 4.65 2.25 -0.431 -0.431 -0.430 -0.430 -0.428 13.17687 13.14019-10.53413   4.537
 4.65 2.50 -0.413 -0.413 -0.413 -0.412 -0.410 13.42684 13.39023-10.28416   6.049
 4.65 2.75 -0.386 -0.386 -0.386 -0.385 -0.382 13.67678 13.64029-10.03400   8.065
 4.65 3.00 -0.345 -0.345 -0.345 -0.344 -0.341 13.92670 13.89037 -9.78383  10.754
 4.65 3.20 -0.300 -0.300 -0.299 -0.298 -0.295 14.12659 14.09044 -9.58380  13.535
 4.65 3.40 -0.241 -0.241 -0.241 -0.240 -0.237 14.32644 14.29053 -9.38376  17.032
 4.65 3.60 -0.168 -0.168 -0.167 -0.166 -0.163 14.52626 14.49069 -9.18367  21.430
 4.65 3.80 -0.078 -0.077 -0.077 -0.076 -0.073 14.72605 14.69100 -8.98342  26.958
 4.65 4.00  0.030  0.030  0.030  0.031  0.034 14.92578 14.89143 -8.78304  33.902
 4.65 4.20  0.157  0.157  0.158  0.159  0.161 15.12526 15.09199 -8.58247  42.609
 4.65 4.40  0.303  0.303  0.304  0.305  0.307 15.32452 15.29276 -8.38166  53.514
 4.65 4.60  0.466  0.466  0.466  0.467  0.469 15.52348 15.49385 -8.18053  67.146
 4.65 4.80  0.641  0.641  0.641  0.641  0.643 15.72210 15.69532 -7.97905  84.154
 4.65 5.00  0.823  0.823  0.823  0.823  0.824 15.92044 15.89708 -7.77728 105.369
 4.65 5.20  1.008  1.008  1.008  1.009  1.009 16.11832 16.09929 -7.57509 131.723
 4.65 5.40  1.195  1.195  1.195  1.195  1.196 16.31620 16.30150 -7.37290 164.668
 4.65 5.60  1.384  1.384  1.384  1.384  1.385 16.51414 16.50363 -7.17077 205.885
 4.65 5.80  1.576  1.576  1.576  1.576  1.577 16.71228 16.70554 -6.96880 257.563
 4.65 6.00  1.772  1.772  1.773  1.773  1.773 16.91057 16.90725 -6.76700 322.386
 4.65 6.25  2.025  2.025  2.025  2.025  2.026 17.15898 17.15874 -6.51558 428.066
 4.65 6.50  2.284  2.284  2.284  2.284  2.285 17.40773 17.40993 -6.26440 569.277
 4.65 6.75  2.543  2.543  2.543  2.543  2.543 17.65687 17.66087 -6.01343 758.359
 4.65 7.00  2.807  2.807  2.807  2.807  2.808 17.90601 17.91180 -5.762461010.243
 4.65 7.25  3.079  3.079  3.079  3.079  3.079 18.15500 18.16277 -5.511481345.637
 4.65 7.50  3.353  3.353  3.353  3.353  3.353 18.40381 18.41380 -5.260511792.101
 4.65 7.75  3.626  3.626  3.626  3.626  3.626 18.65220 18.66542 -5.008932385.329
 4.65 8.00  3.898  3.898  3.898  3.898  3.898 18.90026 18.91745 -4.756963173.551
 4.70-2.00 -0.460 -0.460 -0.460 -0.459 -0.458  8.87708  8.83998-14.83446   0.030
 4.70-1.50 -0.460 -0.460 -0.459 -0.459 -0.457  9.37694  9.33985-14.33442   0.054
 4.70-1.00 -0.459 -0.459 -0.459 -0.459 -0.457  9.87708  9.83998-13.83446   0.096
 4.70-0.50 -0.459 -0.459 -0.459 -0.458 -0.457 10.37694 10.34005-13.33442   0.171
 4.70 0.00 -0.459 -0.459 -0.459 -0.458 -0.457 10.87703 10.83998-12.83446   0.303
 4.70 0.50 -0.458 -0.458 -0.458 -0.457 -0.456 11.37694 11.34005-12.33433   0.539
 4.70 1.00 -0.456 -0.456 -0.456 -0.455 -0.454 11.87703 11.84004-11.83416   0.959
 4.70 1.25 -0.455 -0.455 -0.455 -0.454 -0.453 12.12698 12.09004-11.58424   1.279
 4.70 1.50 -0.454 -0.454 -0.453 -0.453 -0.451 12.37694 12.34005-11.33432   1.706
 4.70 1.75 -0.451 -0.451 -0.451 -0.451 -0.449 12.62696 12.59008-11.08424   2.275
 4.70 2.00 -0.448 -0.448 -0.448 -0.447 -0.445 12.87697 12.84011-10.83416   3.033
 4.70 2.25 -0.442 -0.442 -0.442 -0.441 -0.439 13.12696 13.09008-10.58420   4.044
 4.70 2.50 -0.432 -0.432 -0.432 -0.431 -0.430 13.37694 13.34005-10.33423   5.392
 4.70 2.75 -0.417 -0.416 -0.416 -0.415 -0.414 13.62688 13.59014-10.08421   7.190
 4.70 3.00 -0.392 -0.391 -0.391 -0.390 -0.388 13.87680 13.84023 -9.83416   9.587
 4.70 3.20 -0.362 -0.362 -0.362 -0.361 -0.359 14.07671 14.04024 -9.63412  12.068
 4.70 3.40 -0.322 -0.322 -0.322 -0.321 -0.318 14.27662 14.24024 -9.43407  15.190
 4.70 3.60 -0.270 -0.269 -0.269 -0.268 -0.265 14.47656 14.44031 -9.23402  19.120
 4.70 3.80 -0.202 -0.202 -0.202 -0.201 -0.198 14.67653 14.64045 -9.03395  24.064
 4.70 4.00 -0.119 -0.118 -0.118 -0.117 -0.114 14.87651 14.84061 -8.83387  30.286
 4.70 4.20 -0.017 -0.017 -0.017 -0.015 -0.012 15.07637 15.04076 -8.63370  38.111
 4.70 4.40  0.102  0.102  0.103  0.104  0.107 15.27616 15.24094 -8.43345  47.950
 4.70 4.60  0.241  0.241  0.241  0.243  0.246 15.47589 15.44120 -8.23312  60.315
 4.70 4.80  0.398  0.398  0.399  0.400  0.403 15.67551 15.64164 -8.03268  75.839
 4.70 5.00  0.572  0.572  0.572  0.573  0.576 15.87500 15.84223 -7.83209  95.316
 4.70 5.20  0.761  0.761  0.761  0.762  0.764 16.07423 16.04305 -7.63125 119.691
 4.70 5.40  0.960  0.960  0.960  0.961  0.962 16.27317 16.24414 -7.43013 150.165
 4.70 5.60  1.166  1.166  1.166  1.167  1.168 16.47172 16.44570 -7.22865 188.158
 4.70 5.80  1.375  1.375  1.375  1.375  1.376 16.66993 16.64764 -7.02683 235.500
 4.70 6.00  1.583  1.583  1.583  1.584  1.584 16.86794 16.84973 -6.82478 294.541
 4.70 6.25  1.841  1.841  1.841  1.841  1.841 17.11521 17.10249 -6.57190 389.195
 4.70 6.50  2.096  2.096  2.096  2.096  2.097 17.36248 17.35526 -6.31903 514.267
 4.70 6.75  2.351  2.351  2.351  2.351  2.352 17.61028 17.60753 -6.06685 680.811
 4.70 7.00  2.591  2.591  2.591  2.591  2.592 17.85842 17.85944 -5.81503 902.865
 4.70 7.25  2.852  2.852  2.852  2.852  2.852 18.10703 18.11077 -5.563611202.050
 4.70 7.50  3.114  3.114  3.114  3.114  3.114 18.35564 18.36211 -5.312201600.377
 4.70 7.75  3.377  3.377  3.377  3.377  3.377 18.60423 18.61352 -5.060802130.658
 4.70 8.00  3.640  3.640  3.640  3.640  3.640 18.85279 18.86498 -4.809392836.613
 4.75-2.00 -0.460 -0.460 -0.460 -0.459 -0.458  8.82711  8.79000-14.88439   0.027
 4.75-1.50 -0.460 -0.460 -0.459 -0.459 -0.457  9.32695  9.29004-14.38437   0.048
 4.75-1.00 -0.459 -0.459 -0.459 -0.458 -0.457  9.82705  9.79000-13.88439   0.086
 4.75-0.50 -0.459 -0.459 -0.459 -0.458 -0.456 10.32695 10.29003-13.38437   0.152
 4.75 0.00 -0.458 -0.458 -0.458 -0.457 -0.456 10.82705 10.79000-12.88439   0.270
 4.75 0.50 -0.458 -0.458 -0.457 -0.457 -0.455 11.32695 11.29004-12.38437   0.481
 4.75 1.00 -0.457 -0.456 -0.456 -0.456 -0.454 11.82705 11.79000-11.88439   0.855
 4.75 1.25 -0.455 -0.455 -0.455 -0.455 -0.453 12.07700 12.04002-11.63433   1.140
 4.75 1.50 -0.454 -0.454 -0.454 -0.453 -0.451 12.32695 12.29004-11.38426   1.520
 4.75 1.75 -0.452 -0.452 -0.452 -0.451 -0.449 12.57697 12.54006-11.13433   2.027
 4.75 2.00 -0.449 -0.449 -0.449 -0.448 -0.447 12.82698 12.79007-10.88439   2.703
 4.75 2.25 -0.446 -0.446 -0.445 -0.445 -0.443 13.07697 13.04005-10.63434   3.604
 4.75 2.50 -0.440 -0.440 -0.440 -0.439 -0.437 13.32695 13.29003-10.38426   4.806
 4.75 2.75 -0.431 -0.431 -0.431 -0.430 -0.428 13.57690 13.54012-10.13416   6.409
 4.75 3.00 -0.417 -0.417 -0.417 -0.416 -0.414 13.82685 13.79022 -9.88406   8.546
 4.75 3.20 -0.399 -0.399 -0.399 -0.398 -0.396 14.02681 13.99023 -9.68405  10.757
 4.75 3.40 -0.375 -0.375 -0.374 -0.374 -0.371 14.22677 14.19025 -9.48405  13.541
 4.75 3.60 -0.341 -0.341 -0.340 -0.339 -0.337 14.42673 14.39028 -9.28405  17.045
 4.75 3.80 -0.295 -0.295 -0.294 -0.293 -0.291 14.62669 14.59035 -9.08405  21.455
 4.75 4.00 -0.235 -0.235 -0.235 -0.234 -0.231 14.82666 14.79043 -8.88406  27.007
 4.75 4.20 -0.160 -0.160 -0.159 -0.158 -0.155 15.02653 14.99053 -8.68393  33.992
 4.75 4.40 -0.067 -0.067 -0.067 -0.065 -0.062 15.22640 15.19065 -8.48380  42.781
 4.75 4.60  0.042  0.042  0.043  0.044  0.047 15.42630 15.39076 -8.28367  53.840
 4.75 4.80  0.171  0.171  0.171  0.173  0.176 15.62622 15.59087 -8.08353  67.753
 4.75 5.00  0.317  0.317  0.317  0.318  0.321 15.82614 15.79099 -7.88339  85.254
 4.75 5.20  0.479  0.479  0.479  0.480  0.483 16.02590 15.99123 -7.68312 107.246
 4.75 5.40  0.655  0.655  0.656  0.657  0.659 16.22554 16.19159 -7.48272 134.867
 4.75 5.60  0.844  0.844  0.845  0.845  0.847 16.42506 16.39209 -7.28217 169.538
 4.75 5.80  1.044  1.044  1.045  1.045  1.047 16.62440 16.59282 -7.08140 212.981
 4.75 6.00  1.253  1.253  1.253  1.253  1.255 16.82354 16.79379 -6.88042 267.370
 4.75 6.25  1.522  1.522  1.522  1.522  1.523 17.07187 17.04554 -6.62876 354.640
 4.75 6.50  1.796  1.796  1.796  1.796  1.797 17.31973 17.29776 -6.37665 469.653
 4.75 6.75  2.069  2.069  2.069  2.069  2.069 17.56699 17.55064 -6.12380 620.559
 4.75 7.00  2.323  2.323  2.323  2.324  2.324 17.81425 17.80353 -5.87096 819.952
 4.75 7.25  2.586  2.586  2.586  2.586  2.586 18.06157 18.05625 -5.618221083.603
 4.75 7.50  2.846  2.846  2.846  2.846  2.846 18.30899 18.30878 -5.365621432.482
 4.75 7.75  3.103  3.103  3.103  3.103  3.103 18.55692 18.56086 -5.113491902.624
 4.75 8.00  3.359  3.359  3.359  3.359  3.359 18.80523 18.81258 -4.861702535.275
 4.80-2.00 -0.460 -0.460 -0.460 -0.460 -0.458  8.77706  8.73997-14.93442   0.024
 4.80-1.50 -0.460 -0.460 -0.460 -0.459 -0.458  9.27692  9.24005-14.43439   0.043
 4.80-1.00 -0.460 -0.460 -0.459 -0.459 -0.458  9.77706  9.73997-13.93442   0.076
 4.80-0.50 -0.459 -0.459 -0.459 -0.458 -0.457 10.27692 10.24005-13.43439   0.136
 4.80 0.00 -0.459 -0.459 -0.458 -0.458 -0.456 10.77706 10.73997-12.93442   0.241
 4.80 0.50 -0.458 -0.458 -0.458 -0.457 -0.455 11.27692 11.24005-12.43439   0.429
 4.80 1.00 -0.457 -0.457 -0.456 -0.456 -0.454 11.77699 11.74005-11.93442   0.762
 4.80 1.25 -0.456 -0.456 -0.456 -0.455 -0.453 12.02696 11.99005-11.68435   1.016
 4.80 1.50 -0.455 -0.455 -0.454 -0.454 -0.452 12.27692 12.24005-11.43427   1.355
 4.80 1.75 -0.453 -0.453 -0.453 -0.452 -0.450 12.52696 12.49005-11.18435   1.807
 4.80 2.00 -0.451 -0.451 -0.450 -0.450 -0.448 12.77699 12.74005-10.93442   2.409
 4.80 2.25 -0.447 -0.447 -0.447 -0.446 -0.444 13.02696 12.99005-10.68436   3.212
 4.80 2.50 -0.443 -0.443 -0.442 -0.442 -0.440 13.27692 13.24005-10.43427   4.284
 4.80 2.75 -0.436 -0.436 -0.436 -0.435 -0.434 13.52692 13.49013-10.18416   5.712
 4.80 3.00 -0.427 -0.427 -0.427 -0.426 -0.424 13.77692 13.74020 -9.93405   7.617
 4.80 3.20 -0.417 -0.417 -0.416 -0.416 -0.414 13.97683 13.94025 -9.73409   9.588
 4.80 3.40 -0.402 -0.402 -0.401 -0.401 -0.399 14.17674 14.14028 -9.53413  12.070
 4.80 3.60 -0.381 -0.381 -0.380 -0.380 -0.377 14.37669 14.34031 -9.33414  15.194
 4.80 3.80 -0.352 -0.351 -0.351 -0.350 -0.348 14.57670 14.54034 -9.13410  19.126
 4.80 4.00 -0.312 -0.312 -0.312 -0.311 -0.308 14.77670 14.74037 -8.93405  24.075
 4.80 4.20 -0.260 -0.260 -0.259 -0.258 -0.256 14.97661 14.94043 -8.73400  30.303
 4.80 4.40 -0.193 -0.193 -0.193 -0.192 -0.189 15.17651 15.14051 -8.53395  38.142
 4.80 4.60 -0.111 -0.111 -0.110 -0.109 -0.107 15.37645 15.34059 -8.33388  48.007
 4.80 4.80 -0.011 -0.011 -0.011 -0.009 -0.007 15.57643 15.54067 -8.13379  60.424
 4.80 5.00  0.105  0.105  0.106  0.107  0.110 15.77641 15.74076 -7.93368  76.049
 4.80 5.20  0.240  0.240  0.241  0.242  0.245 15.97628 15.94086 -7.73356  95.705
 4.80 5.40  0.392  0.392  0.392  0.393  0.396 16.17611 16.14098 -7.53341 120.430
 4.80 5.60  0.558  0.558  0.558  0.559  0.562 16.37591 16.34115 -7.33322 151.524
 4.80 5.80  0.737  0.737  0.737  0.738  0.740 16.57568 16.54142 -7.13293 190.608
 4.80 6.00  0.926  0.927  0.927  0.927  0.929 16.77539 16.74178 -6.93256 239.718
 4.80 6.25  1.175  1.175  1.176  1.176  1.177 17.02480 16.99240 -6.68190 319.047
 4.80 6.50  1.434  1.434  1.434  1.434  1.435 17.27393 17.24329 -6.43098 424.243
 4.80 6.75  1.703  1.703  1.703  1.703  1.704 17.52256 17.49478 -6.17961 563.278
 4.80 7.00  1.976  1.976  1.976  1.976  1.977 17.77071 17.74679 -5.92775 746.703
 4.80 7.25  2.247  2.247  2.247  2.247  2.247 18.01808 17.99950 -5.67495 987.438
 4.80 7.50  2.522  2.522  2.522  2.522  2.522 18.26529 18.25237 -5.422051304.616
 4.80 7.75  2.788  2.788  2.788  2.788  2.789 18.51245 18.50529 -5.169121722.921
 4.80 8.00  3.049  3.049  3.049  3.049  3.050 18.75952 18.75831 -4.916142274.005
 4.85-2.00 -0.460 -0.460 -0.460 -0.460 -0.458  8.72705  8.68993-14.98422   0.021
 4.85-1.50 -0.460 -0.460 -0.460 -0.459 -0.458  9.22712  9.19005-14.48439   0.038
 4.85-1.00 -0.460 -0.460 -0.460 -0.459 -0.458  9.72705  9.69002-13.98422   0.068
 4.85-0.50 -0.459 -0.459 -0.459 -0.459 -0.458 10.22712 10.19005-13.48439   0.121
 4.85 0.00 -0.459 -0.459 -0.459 -0.458 -0.457 10.72705 10.69002-12.98422   0.215
 4.85 0.50 -0.459 -0.459 -0.458 -0.458 -0.456 11.22711 11.19005-12.48439   0.382
 4.85 1.00 -0.458 -0.458 -0.458 -0.457 -0.455 11.72705 11.69002-11.98422   0.679
 4.85 1.25 -0.457 -0.457 -0.457 -0.456 -0.455 11.97696 11.94003-11.73431   0.906
 4.85 1.50 -0.456 -0.456 -0.456 -0.455 -0.454 12.22686 12.19005-11.48439   1.208
 4.85 1.75 -0.455 -0.455 -0.455 -0.454 -0.452 12.47691 12.44008-11.23431   1.610
 4.85 2.00 -0.453 -0.453 -0.453 -0.452 -0.450 12.72697 12.69011-10.98422   2.147
 4.85 2.25 -0.450 -0.450 -0.450 -0.449 -0.447 12.97692 12.94008-10.73424   2.863
 4.85 2.50 -0.446 -0.446 -0.446 -0.445 -0.443 13.22686 13.19005-10.48426   3.818
 4.85 2.75 -0.440 -0.440 -0.440 -0.439 -0.437 13.47687 13.44012-10.23425   5.091
 4.85 3.00 -0.433 -0.432 -0.432 -0.432 -0.430 13.72689 13.69020 -9.98422   6.789
 4.85 3.20 -0.424 -0.424 -0.424 -0.423 -0.421 13.92689 13.89014 -9.78418   8.546
 4.85 3.40 -0.414 -0.414 -0.413 -0.413 -0.411 14.12687 14.09008 -9.58415  10.758
 4.85 3.60 -0.400 -0.400 -0.399 -0.399 -0.397 14.32683 14.29010 -9.38415  13.542
 4.85 3.80 -0.381 -0.380 -0.380 -0.380 -0.377 14.52678 14.49019 -9.18418  17.047
 4.85 4.00 -0.355 -0.355 -0.354 -0.354 -0.351 14.72673 14.69028 -8.98422  21.459
 4.85 4.20 -0.320 -0.320 -0.319 -0.319 -0.316 14.92668 14.89030 -8.78413  27.012
 4.85 4.40 -0.274 -0.274 -0.274 -0.273 -0.270 15.12663 15.09032 -8.58404  34.000
 4.85 4.60 -0.215 -0.215 -0.215 -0.214 -0.211 15.32658 15.29036 -8.38396  42.797
 4.85 4.80 -0.141 -0.141 -0.141 -0.140 -0.137 15.52653 15.49045 -8.18388  53.869
 4.85 5.00 -0.052 -0.052 -0.051 -0.050 -0.048 15.72648 15.69055 -7.98380  67.803
 4.85 5.20  0.055  0.055  0.055  0.056  0.059 15.92643 15.89068 -7.78372  85.337
 4.85 5.40  0.180  0.180  0.180  0.181  0.183 16.12637 16.09082 -7.58364 107.400
 4.85 5.60  0.322  0.322  0.322  0.323  0.325 16.32627 16.29096 -7.38347 135.162
 4.85 5.80  0.480  0.480  0.480  0.481  0.483 16.52611 16.49111 -7.18322 170.087
 4.85 6.00  0.652  0.652  0.652  0.652  0.654 16.72591 16.69126 -6.98297 214.020
 4.85 6.25  0.882  0.882  0.882  0.882  0.884 16.97565 16.94157 -6.73269 285.146
 4.85 6.50  1.122  1.122  1.122  1.122  1.123 17.22531 17.19201 -6.48241 379.774
 4.85 6.75  1.373  1.373  1.373  1.373  1.374 17.47476 17.44258 -6.23179 505.534
 4.85 7.00  1.634  1.634  1.634  1.634  1.635 17.72395 17.69337 -5.98088 672.422
 4.85 7.25  1.896  1.896  1.896  1.896  1.896 17.97264 17.94467 -5.72964 893.140
 4.85 7.50  2.166  2.166  2.166  2.167  2.167 18.22089 18.19645 -5.477951184.508
 4.85 7.75  2.437  2.437  2.437  2.437  2.438 18.46865 18.44885 -5.225591567.717
 4.85 8.00  2.709  2.709  2.709  2.709  2.709 18.71592 18.70183 -4.972652071.026
 4.90-2.00 -0.460 -0.460 -0.460 -0.460 -0.459  8.67706  8.63998-15.03438   0.019
 4.90-1.50 -0.460 -0.460 -0.460 -0.459 -0.458  9.17696  9.13988-14.53447   0.034
 4.90-1.00 -0.460 -0.460 -0.460 -0.459 -0.458  9.67706  9.63998-14.03438   0.061
 4.90-0.50 -0.459 -0.459 -0.459 -0.459 -0.458 10.17696 10.13988-13.53432   0.108
 4.90 0.00 -0.459 -0.459 -0.459 -0.459 -0.457 10.67706 10.63999-13.03433   0.191
 4.90 0.50 -0.459 -0.459 -0.459 -0.458 -0.457 11.17696 11.13988-12.53432   0.340
 4.90 1.00 -0.458 -0.458 -0.458 -0.458 -0.456 11.67706 11.63998-12.03433   0.605
 4.90 1.25 -0.458 -0.458 -0.458 -0.457 -0.456 11.92701 11.88993-11.78433   0.807
 4.90 1.50 -0.457 -0.457 -0.457 -0.457 -0.455 12.17696 12.13988-11.53432   1.076
 4.90 1.75 -0.457 -0.457 -0.456 -0.456 -0.454 12.42696 12.38998-11.28430   1.435
 4.90 2.00 -0.455 -0.455 -0.455 -0.455 -0.453 12.67697 12.64008-11.03428   1.914
 4.90 2.25 -0.454 -0.454 -0.453 -0.453 -0.451 12.92696 12.89016-10.78430   2.552
 4.90 2.50 -0.451 -0.451 -0.451 -0.450 -0.448 13.17696 13.14019-10.53432   3.403
 4.90 2.75 -0.446 -0.446 -0.446 -0.446 -0.444 13.42696 13.39014-10.28425   4.538
 4.90 3.00 -0.440 -0.440 -0.440 -0.439 -0.437 13.67697 13.64008-10.03419   6.051
 4.90 3.20 -0.433 -0.433 -0.433 -0.432 -0.430 13.87697 13.84013 -9.83418   7.617
 4.90 3.40 -0.424 -0.423 -0.423 -0.423 -0.421 14.07696 14.04017 -9.63418   9.589
 4.90 3.60 -0.412 -0.412 -0.411 -0.411 -0.409 14.27692 14.24021 -9.43415  12.070
 4.90 3.80 -0.396 -0.396 -0.396 -0.395 -0.393 14.47686 14.44025 -9.23410  15.195
 4.90 4.00 -0.377 -0.377 -0.377 -0.376 -0.374 14.67679 14.64028 -9.03405  19.128
 4.90 4.20 -0.352 -0.352 -0.352 -0.351 -0.349 14.87673 14.84025 -8.83404  24.077
 4.90 4.40 -0.320 -0.320 -0.319 -0.319 -0.316 15.07669 15.04021 -8.63403  30.307
 4.90 4.60 -0.278 -0.278 -0.277 -0.277 -0.275 15.27666 15.24024 -8.43398  38.149
 4.90 4.80 -0.224 -0.224 -0.224 -0.223 -0.221 15.47663 15.44036 -8.23390  48.020
 4.90 5.00 -0.157 -0.157 -0.157 -0.156 -0.154 15.67660 15.64048 -8.03381  60.444
 4.90 5.20 -0.075 -0.075 -0.075 -0.074 -0.072 15.87652 15.84062 -7.83378  76.077
 4.90 5.40  0.023  0.023  0.023  0.024  0.026 16.07643 16.04075 -7.63374  95.751
 4.90 5.60  0.140  0.140  0.140  0.141  0.143 16.27634 16.24085 -7.43365 120.511
 4.90 5.80  0.274  0.274  0.275  0.276  0.278 16.47624 16.44092 -7.23350 151.670
 4.90 6.00  0.426  0.426  0.426  0.427  0.429 16.67615 16.64098 -7.03334 190.878
 4.90 6.25  0.636  0.636  0.636  0.637  0.638 16.92599 16.89118 -6.78316 254.394
 4.90 6.50  0.864  0.864  0.864  0.864  0.866 17.17580 17.14145 -6.53298 338.988
 4.90 6.75  1.096  1.096  1.096  1.096  1.097 17.42548 17.39176 -6.28264 451.625
 4.90 7.00  1.346  1.346  1.346  1.347  1.347 17.67505 17.64217 -6.03217 601.498
 4.90 7.25  1.599  1.599  1.600  1.600  1.600 17.92451 17.89278 -5.78158 800.622
 4.90 7.50  1.859  1.859  1.859  1.859  1.859 18.17377 18.14364 -5.530771064.839
 4.90 7.75  2.120  2.120  2.120  2.120  2.120 18.42250 18.39497 -5.279431414.278
 4.90 8.00  2.385  2.385  2.385  2.385  2.385 18.67080 18.64670 -5.027661876.160
 4.95-2.00 -0.460 -0.460 -0.460 -0.460 -0.459  8.62706  8.58995-15.08439   0.017
 4.95-1.50 -0.460 -0.460 -0.460 -0.460 -0.459  9.12710  9.08991-14.58436   0.030
 4.95-1.00 -0.460 -0.460 -0.460 -0.459 -0.459  9.62706  9.58995-14.08434   0.054
 4.95-0.50 -0.460 -0.460 -0.459 -0.459 -0.458 10.12711 10.08990-13.58436   0.096
 4.95 0.00 -0.459 -0.459 -0.459 -0.459 -0.458 10.62706 10.58995-13.08434   0.171
 4.95 0.50 -0.459 -0.459 -0.459 -0.458 -0.457 11.12710 11.08991-12.58436   0.303
 4.95 1.00 -0.458 -0.458 -0.458 -0.458 -0.457 11.62706 11.59006-12.08434   0.540
 4.95 1.25 -0.458 -0.458 -0.458 -0.458 -0.456 11.87708 11.83998-11.83435   0.720
 4.95 1.50 -0.458 -0.458 -0.458 -0.457 -0.456 12.12710 12.08991-11.58436   0.959
 4.95 1.75 -0.457 -0.457 -0.457 -0.457 -0.455 12.37708 12.33998-11.33432   1.279
 4.95 2.00 -0.457 -0.456 -0.456 -0.456 -0.455 12.62706 12.59006-11.08428   1.706
 4.95 2.25 -0.455 -0.455 -0.455 -0.455 -0.453 12.87708 12.83998-10.83432   2.275
 4.95 2.50 -0.454 -0.454 -0.454 -0.453 -0.452 13.12711 13.08991-10.58436   3.033
 4.95 2.75 -0.451 -0.451 -0.451 -0.451 -0.449 13.37704 13.33997-10.33430   4.044
 4.95 3.00 -0.447 -0.447 -0.447 -0.447 -0.445 13.62696 13.59006-10.08423   5.393
 4.95 3.20 -0.442 -0.442 -0.442 -0.442 -0.440 13.82689 13.79014 -9.88422   6.789
 4.95 3.40 -0.435 -0.435 -0.435 -0.435 -0.433 14.02682 13.99022 -9.68420   8.546
 4.95 3.60 -0.426 -0.426 -0.426 -0.425 -0.424 14.22680 14.19027 -9.48417  10.759
 4.95 3.80 -0.413 -0.413 -0.413 -0.412 -0.411 14.42682 14.39028 -9.28412  13.544
 4.95 4.00 -0.397 -0.396 -0.396 -0.396 -0.394 14.62685 14.59028 -9.08407  17.050
 4.95 4.20 -0.375 -0.375 -0.375 -0.375 -0.373 14.82683 14.79027 -8.88406  21.462
 4.95 4.40 -0.349 -0.349 -0.349 -0.348 -0.346 15.02680 14.99026 -8.68404  27.015
 4.95 4.60 -0.316 -0.316 -0.316 -0.315 -0.313 15.22676 15.19031 -8.48399  34.005
 4.95 4.80 -0.275 -0.275 -0.275 -0.274 -0.272 15.42671 15.39041 -8.28393  42.805
 4.95 5.00 -0.224 -0.224 -0.224 -0.223 -0.221 15.62665 15.59051 -8.08386  53.881
 4.95 5.20 -0.161 -0.160 -0.160 -0.160 -0.158 15.82658 15.79055 -7.88380  67.819
 4.95 5.40 -0.083 -0.083 -0.083 -0.082 -0.080 16.02650 15.99059 -7.68373  85.360
 4.95 5.60  0.010  0.010  0.010  0.011  0.013 16.22642 16.19066 -7.48366 107.437
 4.95 5.80  0.121  0.121  0.121  0.122  0.124 16.42633 16.39075 -7.28358 135.221
 4.95 6.00  0.250  0.250  0.251  0.251  0.253 16.62624 16.59084 -7.08349 170.187
 4.95 6.25  0.437  0.437  0.437  0.437  0.439 16.87602 16.84090 -6.83336 226.847
 4.95 6.50  0.646  0.646  0.646  0.647  0.648 17.12581 17.09096 -6.58319 302.341
 4.95 6.75  0.862  0.862  0.862  0.862  0.863 17.37566 17.34127 -6.33295 402.922
 4.95 7.00  1.102  1.102  1.102  1.103  1.103 17.62552 17.59162 -6.08265 536.878
 4.95 7.25  1.349  1.349  1.349  1.350  1.350 17.87524 17.84198 -5.83231 715.155
 4.95 7.50  1.602  1.602  1.602  1.602  1.603 18.12483 18.09237 -5.58187 952.273
 4.95 7.75  1.856  1.856  1.856  1.856  1.856 18.37415 18.34314 -5.331141267.181
 4.95 8.00  2.113  2.113  2.113  2.113  2.113 18.62325 18.59417 -5.080191685.277
 5.00-2.00 -0.460 -0.460 -0.460 -0.460 -0.459  8.57703  8.53995-15.13436   0.015
 5.00-1.50 -0.460 -0.460 -0.460 -0.460 -0.459  9.07700  9.03981-14.63433   0.027
 5.00-1.00 -0.460 -0.460 -0.460 -0.460 -0.459  9.57703  9.53995-14.13436   0.048
 5.00-0.50 -0.460 -0.460 -0.460 -0.459 -0.459 10.07700 10.03981-13.63433   0.086
 5.00 0.00 -0.460 -0.460 -0.460 -0.459 -0.459 10.57703 10.53995-13.13436   0.152
 5.00 0.50 -0.459 -0.459 -0.459 -0.459 -0.458 11.07700 11.03981-12.63433   0.270
 5.00 1.00 -0.459 -0.459 -0.459 -0.458 -0.457 11.57703 11.53995-12.13430   0.481
 5.00 1.25 -0.458 -0.458 -0.458 -0.458 -0.457 11.82702 11.78988-11.88431   0.641
 5.00 1.50 -0.458 -0.458 -0.458 -0.458 -0.456 12.07700 12.03981-11.63433   0.855
 5.00 1.75 -0.458 -0.458 -0.457 -0.457 -0.456 12.32702 12.28995-11.38431   1.140
 5.00 2.00 -0.457 -0.457 -0.457 -0.456 -0.455 12.57703 12.54008-11.13430   1.520
 5.00 2.25 -0.456 -0.456 -0.456 -0.456 -0.454 12.82703 12.79017-10.88431   2.027
 5.00 2.50 -0.455 -0.455 -0.455 -0.455 -0.453 13.07701 13.04021-10.63433   2.703
 5.00 2.75 -0.454 -0.454 -0.454 -0.453 -0.452 13.32696 13.29014-10.38429   3.605
 5.00 3.00 -0.451 -0.451 -0.451 -0.451 -0.449 13.57692 13.54008-10.13424   4.807
 5.00 3.20 -0.448 -0.448 -0.448 -0.448 -0.446 13.77695 13.74013 -9.93420   6.051
 5.00 3.40 -0.444 -0.444 -0.444 -0.444 -0.442 13.97699 13.94018 -9.73416   7.618
 5.00 3.60 -0.438 -0.438 -0.438 -0.438 -0.436 14.17700 14.14021 -9.53413   9.590
 5.00 3.80 -0.429 -0.429 -0.429 -0.429 -0.427 14.37697 14.34021 -9.33413  12.072
 5.00 4.00 -0.417 -0.417 -0.417 -0.417 -0.415 14.57692 14.54020 -9.13413  15.197
 5.00 4.20 -0.400 -0.400 -0.400 -0.400 -0.398 14.77681 14.74020 -8.93413  19.129
 5.00 4.40 -0.378 -0.378 -0.378 -0.378 -0.376 14.97670 14.94021 -8.73414  24.080
 5.00 4.60 -0.350 -0.350 -0.350 -0.350 -0.348 15.17665 15.14026 -8.53410  30.311
 5.00 4.80 -0.315 -0.315 -0.315 -0.314 -0.313 15.37667 15.34036 -8.33402  38.155
 5.00 5.00 -0.272 -0.272 -0.272 -0.271 -0.270 15.57669 15.54045 -8.13395  48.029
 5.00 5.20 -0.220 -0.220 -0.220 -0.219 -0.218 15.77668 15.74052 -7.93387  60.454
 5.00 5.40 -0.157 -0.157 -0.156 -0.156 -0.154 15.97666 15.94058 -7.73380  76.093
 5.00 5.60 -0.080 -0.080 -0.080 -0.079 -0.078 16.17659 16.14062 -7.53373  95.776
 5.00 5.80  0.011  0.011  0.011  0.011  0.013 16.37648 16.34066 -7.33366 120.549
 5.00 6.00  0.120  0.120  0.120  0.120  0.122 16.57634 16.54070 -7.13359 151.726
 5.00 6.25  0.281  0.281  0.281  0.281  0.283 16.82613 16.79083 -6.88350 202.253
 5.00 6.50  0.469  0.469  0.469  0.470  0.471 17.07591 17.04100 -6.63339 269.588
 5.00 6.75  0.676  0.677  0.677  0.677  0.678 17.32584 17.29123 -6.38318 359.321
 5.00 7.00  0.895  0.895  0.895  0.895  0.896 17.57577 17.54145 -6.13295 478.873
 5.00 7.25  1.134  1.134  1.134  1.134  1.135 17.82552 17.79162 -5.88271 638.082
 5.00 7.50  1.382  1.382  1.382  1.382  1.382 18.07518 18.04179 -5.63246 850.039
 5.00 7.75  1.631  1.631  1.631  1.631  1.631 18.32477 18.29226 -5.381981132.049
 5.00 8.00  1.884  1.884  1.884  1.884  1.884 18.57426 18.54295 -5.131361507.195
 5.05-2.00 -0.459 -0.459 -0.459 -0.459 -0.458  8.52711  8.48996-15.18436   0.014
 5.05-1.50 -0.459 -0.459 -0.459 -0.459 -0.458  9.02694  8.98994-14.68445   0.024
 5.05-1.00 -0.459 -0.459 -0.459 -0.459 -0.458  9.52711  9.48996-14.18436   0.043
 5.05-0.50 -0.459 -0.459 -0.459 -0.459 -0.458 10.02694  9.98994-13.68445   0.076
 5.05 0.00 -0.459 -0.459 -0.459 -0.459 -0.458 10.52711 10.48996-13.18436   0.136
 5.05 0.50 -0.459 -0.459 -0.459 -0.459 -0.458 11.02694 10.98994-12.68445   0.241
 5.05 1.00 -0.459 -0.459 -0.459 -0.459 -0.458 11.52711 11.48996-12.18436   0.429
 5.05 1.25 -0.459 -0.459 -0.459 -0.459 -0.458 11.77703 11.73997-11.93440   0.572
 5.05 1.50 -0.459 -0.459 -0.459 -0.458 -0.458 12.02694 11.98998-11.68445   0.762
 5.05 1.75 -0.458 -0.458 -0.458 -0.458 -0.457 12.27696 12.23997-11.43437   1.016
 5.05 2.00 -0.458 -0.458 -0.458 -0.458 -0.457 12.52699 12.48996-11.18429   1.355
 5.05 2.25 -0.457 -0.457 -0.457 -0.457 -0.456 12.77696 12.73999-10.93426   1.807
 5.05 2.50 -0.457 -0.457 -0.456 -0.456 -0.455 13.02694 12.99003-10.68424   2.410
 5.05 2.75 -0.455 -0.455 -0.455 -0.455 -0.454 13.27696 13.24006-10.43423   3.214
 5.05 3.00 -0.454 -0.454 -0.454 -0.453 -0.452 13.52699 13.49010-10.18422   4.285
 5.05 3.20 -0.452 -0.452 -0.452 -0.451 -0.450 13.72698 13.69009 -9.98423   5.394
 5.05 3.40 -0.449 -0.449 -0.449 -0.449 -0.447 13.92696 13.89008 -9.78424   6.790
 5.05 3.60 -0.446 -0.446 -0.446 -0.445 -0.444 14.12692 14.09011 -9.58423   8.547
 5.05 3.80 -0.441 -0.440 -0.440 -0.440 -0.438 14.32689 14.29017 -9.38420  10.760
 5.05 4.00 -0.433 -0.433 -0.433 -0.432 -0.431 14.52686 14.49024 -9.18416  13.545
 5.05 4.20 -0.422 -0.422 -0.422 -0.421 -0.420 14.72689 14.69023 -8.98411  17.051
 5.05 4.40 -0.406 -0.406 -0.406 -0.406 -0.404 14.92692 14.89021 -8.78406  21.463
 5.05 4.60 -0.385 -0.385 -0.385 -0.384 -0.383 15.12690 15.09024 -8.58402  27.018
 5.05 4.80 -0.357 -0.357 -0.356 -0.356 -0.354 15.32681 15.29031 -8.38399  34.010
 5.05 5.00 -0.320 -0.320 -0.320 -0.320 -0.318 15.52673 15.49038 -8.18396  42.812
 5.05 5.20 -0.275 -0.275 -0.275 -0.274 -0.273 15.72665 15.69040 -7.98390  53.888
 5.05 5.40 -0.220 -0.220 -0.220 -0.219 -0.218 15.92657 15.89042 -7.78385  67.830
 5.05 5.60 -0.154 -0.154 -0.154 -0.153 -0.152 16.12652 16.09048 -7.58380  85.377
 5.05 5.80 -0.075 -0.075 -0.075 -0.075 -0.073 16.32650 16.29057 -7.38374 107.463
 5.05 6.00  0.017  0.017  0.017  0.018  0.019 16.52647 16.49066 -7.18369 135.261
 5.05 6.25  0.157  0.157  0.157  0.158  0.159 16.77630 16.74077 -6.93355 180.314
 5.05 6.50  0.324  0.324  0.324  0.325  0.326 17.02612 16.99087 -6.68340 240.359
 5.05 6.75  0.517  0.517  0.517  0.517  0.518 17.27604 17.24104 -6.43325 320.388
 5.05 7.00  0.715  0.715  0.715  0.716  0.716 17.52595 17.49122 -6.18310 427.031
 5.05 7.25  0.945  0.945  0.945  0.946  0.946 17.77563 17.74141 -5.93294 569.089
 5.05 7.50  1.187  1.187  1.187  1.187  1.187 18.02530 17.99162 -5.68277 758.295
 5.05 7.75  1.432  1.432  1.432  1.432  1.433 18.27503 18.24195 -5.432431010.232
 5.05 8.00  1.683  1.683  1.683  1.683  1.683 18.52479 18.49234 -5.181971345.652
 5.10-2.00 -0.458 -0.458 -0.458 -0.458 -0.458  8.47712  8.43996-15.23441   0.012
 5.10-1.50 -0.458 -0.458 -0.458 -0.458 -0.458  8.97704  8.93992-14.73448   0.021
 5.10-1.00 -0.458 -0.458 -0.458 -0.458 -0.458  9.47712  9.43996-14.23433   0.038
 5.10-0.50 -0.458 -0.458 -0.458 -0.458 -0.458  9.97704  9.93992-13.73448   0.068
 5.10 0.00 -0.458 -0.458 -0.458 -0.458 -0.458 10.47712 10.43996-13.23433   0.121
 5.10 0.50 -0.458 -0.458 -0.458 -0.458 -0.458 10.97704 10.93997-12.73448   0.215
 5.10 1.00 -0.458 -0.458 -0.458 -0.458 -0.458 11.47712 11.43996-12.23433   0.382
 5.10 1.25 -0.458 -0.458 -0.458 -0.458 -0.457 11.72706 11.68997-11.98440   0.509
 5.10 1.50 -0.458 -0.458 -0.458 -0.458 -0.457 11.97699 11.93997-11.73448   0.679
 5.10 1.75 -0.458 -0.458 -0.458 -0.458 -0.457 12.22698 12.18997-11.48440   0.906
 5.10 2.00 -0.458 -0.458 -0.458 -0.458 -0.457 12.47698 12.43996-11.23433   1.208
 5.10 2.25 -0.458 -0.458 -0.458 -0.457 -0.457 12.72698 12.68998-10.98428   1.611
 5.10 2.50 -0.457 -0.457 -0.457 -0.457 -0.456 12.97699 12.94002-10.73424   2.148
 5.10 2.75 -0.457 -0.457 -0.457 -0.456 -0.456 13.22699 13.19007-10.48425   2.864
 5.10 3.00 -0.456 -0.456 -0.456 -0.455 -0.455 13.47698 13.44012-10.23426   3.819
 5.10 3.20 -0.455 -0.455 -0.455 -0.454 -0.453 13.67695 13.64010-10.03425   4.807
 5.10 3.40 -0.453 -0.453 -0.453 -0.453 -0.452 13.87692 13.84008 -9.83425   6.052
 5.10 3.60 -0.451 -0.451 -0.451 -0.450 -0.449 14.07692 14.04008 -9.63423   7.618
 5.10 3.80 -0.448 -0.448 -0.448 -0.447 -0.446 14.27695 14.24010 -9.43421   9.590
 5.10 4.00 -0.443 -0.443 -0.443 -0.442 -0.441 14.47698 14.44012 -9.23418  12.073
 5.10 4.20 -0.436 -0.436 -0.436 -0.436 -0.434 14.67691 14.64014 -9.03421  15.198
 5.10 4.40 -0.427 -0.427 -0.427 -0.426 -0.425 14.87684 14.84016 -8.83423  19.131
 5.10 4.60 -0.413 -0.413 -0.413 -0.412 -0.411 15.07681 15.04019 -8.63420  24.082
 5.10 4.80 -0.393 -0.393 -0.393 -0.393 -0.391 15.27682 15.24024 -8.43412  30.315
 5.10 5.00 -0.366 -0.366 -0.366 -0.366 -0.364 15.47683 15.44028 -8.23403  38.161
 5.10 5.20 -0.331 -0.331 -0.331 -0.330 -0.329 15.67675 15.64031 -8.03402  48.035
 5.10 5.40 -0.285 -0.285 -0.285 -0.284 -0.283 15.87667 15.84035 -7.83401  60.463
 5.10 5.60 -0.228 -0.228 -0.228 -0.227 -0.226 16.07661 16.04041 -7.63395  76.106
 5.10 5.80 -0.159 -0.159 -0.159 -0.158 -0.157 16.27658 16.24050 -7.43384  95.796
 5.10 6.00 -0.076 -0.076 -0.076 -0.076 -0.075 16.47654 16.44059 -7.23374 120.579
 5.10 6.25  0.047  0.047  0.047  0.047  0.048 16.72642 16.69068 -6.98363 160.744
 5.10 6.50  0.196  0.196  0.197  0.197  0.198 16.97631 16.94077 -6.73353 214.281
 5.10 6.75  0.372  0.372  0.372  0.372  0.373 17.22621 17.19091 -6.48342 285.644
 5.10 7.00  0.563  0.563  0.563  0.563  0.564 17.47611 17.44107 -6.23329 380.758
 5.10 7.25  0.778  0.778  0.778  0.778  0.778 17.72589 17.69123 -5.98307 507.470
 5.10 7.50  1.012  1.012  1.012  1.012  1.012 17.97566 17.94141 -5.73283 676.276
 5.10 7.75  1.253  1.253  1.253  1.253  1.253 18.22545 18.19168 -5.48258 901.136
 5.10 8.00  1.500  1.500  1.500  1.500  1.501 18.47524 18.44201 -5.232331200.631
 5.15-2.00 -0.457 -0.457 -0.457 -0.457 -0.456  8.42716  8.38987-15.28441   0.011
 5.15-1.50 -0.457 -0.457 -0.457 -0.457 -0.456  8.92706  8.88992-14.78436   0.019
 5.15-1.00 -0.457 -0.457 -0.457 -0.457 -0.456  9.42700  9.39005-14.28433   0.034
 5.15-0.50 -0.457 -0.457 -0.457 -0.457 -0.456  9.92706  9.88992-13.78436   0.061
 5.15 0.00 -0.457 -0.457 -0.457 -0.457 -0.456 10.42700 10.39005-13.28433   0.108
 5.15 0.50 -0.457 -0.457 -0.457 -0.457 -0.456 10.92701 10.88992-12.78436   0.191
 5.15 1.00 -0.457 -0.457 -0.457 -0.457 -0.456 11.42700 11.39005-12.28433   0.340
 5.15 1.25 -0.457 -0.457 -0.457 -0.457 -0.456 11.67701 11.64001-12.03435   0.454
 5.15 1.50 -0.457 -0.457 -0.457 -0.457 -0.456 11.92701 11.88997-11.78436   0.605
 5.15 1.75 -0.457 -0.457 -0.457 -0.456 -0.456 12.17701 12.14001-11.53435   0.807
 5.15 2.00 -0.457 -0.457 -0.457 -0.456 -0.456 12.42700 12.39005-11.28433   1.076
 5.15 2.25 -0.457 -0.457 -0.456 -0.456 -0.456 12.67698 12.64001-11.03435   1.435
 5.15 2.50 -0.456 -0.456 -0.456 -0.456 -0.456 12.92696 12.88997-10.78436   1.914
 5.15 2.75 -0.456 -0.456 -0.456 -0.456 -0.455 13.17698 13.14001-10.53431   2.553
 5.15 3.00 -0.456 -0.456 -0.456 -0.455 -0.455 13.42700 13.39005-10.28425   3.404
 5.15 3.20 -0.455 -0.455 -0.455 -0.455 -0.454 13.62696 13.59004-10.08429   4.285
 5.15 3.40 -0.454 -0.454 -0.454 -0.454 -0.453 13.82693 13.79003 -9.88434   5.394
 5.15 3.60 -0.453 -0.453 -0.453 -0.453 -0.452 14.02693 13.99003 -9.68432   6.790
 5.15 3.80 -0.452 -0.452 -0.452 -0.451 -0.450 14.22696 14.19004 -9.48424   8.548
 5.15 4.00 -0.449 -0.449 -0.449 -0.449 -0.448 14.42700 14.39005 -9.28416  10.761
 5.15 4.20 -0.445 -0.445 -0.445 -0.445 -0.444 14.62694 14.59009 -9.08413  13.546
 5.15 4.40 -0.440 -0.440 -0.440 -0.439 -0.438 14.82689 14.79012 -8.88411  17.052
 5.15 4.60 -0.432 -0.432 -0.432 -0.431 -0.430 15.02685 14.99016 -8.68409  21.466
 5.15 4.80 -0.420 -0.420 -0.420 -0.419 -0.418 15.22684 15.19019 -8.48408  27.021
 5.15 5.00 -0.403 -0.403 -0.402 -0.402 -0.401 15.42684 15.39023 -8.28408  34.015
 5.15 5.20 -0.378 -0.378 -0.378 -0.378 -0.376 15.62676 15.59026 -8.08409  42.816
 5.15 5.40 -0.345 -0.345 -0.345 -0.345 -0.343 15.82669 15.79029 -7.88409  53.895
 5.15 5.60 -0.301 -0.301 -0.301 -0.301 -0.299 16.02662 15.99037 -7.68404  67.840
 5.15 5.80 -0.245 -0.245 -0.245 -0.245 -0.243 16.22656 16.19047 -7.48394  85.393
 5.15 6.00 -0.175 -0.175 -0.175 -0.175 -0.173 16.42651 16.39058 -7.28383 107.488
 5.15 6.25 -0.067 -0.067 -0.067 -0.067 -0.066 16.67645 16.64062 -7.03370 143.297
 5.15 6.50  0.065  0.065  0.065  0.065  0.066 16.92639 16.89065 -6.78357 191.031
 5.15 6.75  0.223  0.223  0.224  0.224  0.225 17.17631 17.14079 -6.53349 254.663
 5.15 7.00  0.407  0.407  0.407  0.407  0.408 17.42619 17.39094 -6.28341 339.478
 5.15 7.25  0.600  0.600  0.600  0.600  0.601 17.67602 17.64109 -6.03325 452.483
 5.15 7.50  0.825  0.825  0.825  0.826  0.826 17.92583 17.89126 -5.78304 603.053
 5.15 7.75  1.061  1.061  1.061  1.061  1.062 18.17561 18.14151 -5.53282 803.665
 5.15 8.00  1.306  1.306  1.306  1.306  1.306 18.42537 18.39182 -5.282581070.927
 5.20-2.00 -0.454 -0.454 -0.454 -0.454 -0.453  8.37712  8.34005-15.33433   0.010
 5.20-1.50 -0.454 -0.454 -0.454 -0.454 -0.453  8.87703  8.83992-14.83446   0.017
 5.20-1.00 -0.454 -0.454 -0.454 -0.454 -0.453  9.37712  9.34005-14.33433   0.030
 5.20-0.50 -0.454 -0.454 -0.454 -0.454 -0.453  9.87703  9.83992-13.83446   0.054
 5.20 0.00 -0.454 -0.454 -0.454 -0.454 -0.453 10.37712 10.34005-13.33433   0.096
 5.20 0.50 -0.454 -0.454 -0.454 -0.454 -0.453 10.87703 10.83992-12.83446   0.171
 5.20 1.00 -0.454 -0.454 -0.454 -0.454 -0.453 11.37712 11.34005-12.33433   0.303
 5.20 1.25 -0.454 -0.454 -0.454 -0.454 -0.453 11.62708 11.59001-12.08439   0.404
 5.20 1.50 -0.454 -0.454 -0.454 -0.454 -0.453 11.87703 11.83998-11.83446   0.540
 5.20 1.75 -0.454 -0.454 -0.454 -0.454 -0.453 12.12708 12.09001-11.58439   0.720
 5.20 2.00 -0.454 -0.454 -0.454 -0.454 -0.453 12.37712 12.34005-11.33432   0.959
 5.20 2.25 -0.454 -0.454 -0.454 -0.454 -0.453 12.62705 12.59001-11.08439   1.279
 5.20 2.50 -0.454 -0.454 -0.454 -0.454 -0.453 12.87697 12.83998-10.83446   1.706
 5.20 2.75 -0.454 -0.454 -0.454 -0.454 -0.453 13.12695 13.09001-10.58440   2.275
 5.20 3.00 -0.454 -0.454 -0.454 -0.453 -0.453 13.37694 13.34005-10.33433   3.034
 5.20 3.20 -0.453 -0.453 -0.453 -0.453 -0.453 13.57695 13.54005-10.13426   3.819
 5.20 3.40 -0.453 -0.453 -0.453 -0.453 -0.452 13.77696 13.74004 -9.93420   4.808
 5.20 3.60 -0.453 -0.452 -0.452 -0.452 -0.452 13.97697 13.94004 -9.73418   6.052
 5.20 3.80 -0.452 -0.452 -0.452 -0.451 -0.451 14.17696 14.14005 -9.53420   7.619
 5.20 4.00 -0.450 -0.450 -0.450 -0.450 -0.449 14.37694 14.34005 -9.33423   9.591
 5.20 4.20 -0.449 -0.449 -0.448 -0.448 -0.448 14.57691 14.54006 -9.13420  12.073
 5.20 4.40 -0.446 -0.446 -0.446 -0.445 -0.445 14.77687 14.74009 -8.93418  15.198
 5.20 4.60 -0.441 -0.441 -0.441 -0.441 -0.440 14.97683 14.94014 -8.73415  19.132
 5.20 4.80 -0.435 -0.435 -0.435 -0.434 -0.434 15.17680 15.14019 -8.53414  24.085
 5.20 5.00 -0.425 -0.425 -0.425 -0.425 -0.424 15.37676 15.34025 -8.33414  30.319
 5.20 5.20 -0.410 -0.410 -0.410 -0.410 -0.409 15.57675 15.54027 -8.13415  38.165
 5.20 5.40 -0.390 -0.390 -0.390 -0.389 -0.388 15.77674 15.74028 -7.93416  48.041
 5.20 5.60 -0.361 -0.360 -0.360 -0.360 -0.359 15.97670 15.94032 -7.73410  60.472
 5.20 5.80 -0.321 -0.321 -0.321 -0.320 -0.319 16.17664 16.14038 -7.53398  76.120
 5.20 6.00 -0.268 -0.268 -0.268 -0.268 -0.267 16.37658 16.34044 -7.33386  95.816
 5.20 6.25 -0.183 -0.182 -0.182 -0.182 -0.181 16.62651 16.59052 -7.08386 127.741
 5.20 6.50 -0.071 -0.071 -0.071 -0.071 -0.070 16.87645 16.84061 -6.83387 170.298
 5.20 6.75  0.065  0.065  0.065  0.066  0.067 17.12633 17.09072 -6.58367 227.030
 5.20 7.00  0.229  0.229  0.229  0.230  0.231 17.37621 17.34084 -6.33348 302.652
 5.20 7.25  0.404  0.404  0.404  0.405  0.406 17.62610 17.59097 -6.08338 403.425
 5.20 7.50  0.615  0.615  0.616  0.616  0.616 17.87599 17.84111 -5.83327 537.714
 5.20 7.75  0.841  0.841  0.841  0.842  0.842 18.12584 18.09134 -5.58308 716.657
 5.20 8.00  1.080  1.080  1.080  1.080  1.080 18.37566 18.34163 -5.33283 955.086
 5.25-2.00 -0.450 -0.450 -0.450 -0.450 -0.449  8.32716  8.29004-15.38437   0.009
 5.25-1.50 -0.450 -0.450 -0.450 -0.450 -0.449  8.82705  8.78993-14.88439   0.015
 5.25-1.00 -0.450 -0.450 -0.450 -0.450 -0.449  9.32715  9.29004-14.38437   0.027
 5.25-0.50 -0.450 -0.450 -0.450 -0.450 -0.449  9.82705  9.78993-13.88439   0.048
 5.25 0.00 -0.450 -0.450 -0.450 -0.450 -0.449 10.32716 10.29003-13.38437   0.086
 5.25 0.50 -0.450 -0.450 -0.450 -0.450 -0.449 10.82705 10.78993-12.88439   0.152
 5.25 1.00 -0.450 -0.450 -0.450 -0.450 -0.449 11.32716 11.29004-12.38437   0.270
 5.25 1.25 -0.450 -0.450 -0.450 -0.450 -0.449 11.57710 11.53998-12.13438   0.360
 5.25 1.50 -0.450 -0.450 -0.450 -0.450 -0.449 11.82705 11.78993-11.88439   0.481
 5.25 1.75 -0.450 -0.450 -0.450 -0.450 -0.449 12.07700 12.03998-11.63438   0.641
 5.25 2.00 -0.450 -0.450 -0.450 -0.450 -0.449 12.32695 12.29004-11.38437   0.855
 5.25 2.25 -0.450 -0.450 -0.450 -0.450 -0.449 12.57697 12.54002-11.13438   1.140
 5.25 2.50 -0.450 -0.450 -0.450 -0.450 -0.449 12.82698 12.79000-10.88439   1.520
 5.25 2.75 -0.450 -0.450 -0.450 -0.450 -0.449 13.07697 13.04002-10.63433   2.027
 5.25 3.00 -0.450 -0.450 -0.450 -0.450 -0.449 13.32695 13.29003-10.38426   2.704
 5.25 3.20 -0.450 -0.450 -0.450 -0.449 -0.449 13.52696 13.49002-10.18431   3.404
 5.25 3.40 -0.450 -0.450 -0.449 -0.449 -0.449 13.72698 13.69001 -9.98436   4.285
 5.25 3.60 -0.449 -0.449 -0.449 -0.449 -0.448 13.92698 13.89001 -9.78436   5.394
 5.25 3.80 -0.449 -0.449 -0.449 -0.449 -0.448 14.12697 14.09002 -9.58431   6.790
 5.25 4.00 -0.448 -0.448 -0.448 -0.448 -0.447 14.32695 14.29004 -9.38426   8.548
 5.25 4.20 -0.447 -0.447 -0.447 -0.447 -0.446 14.52691 14.49005 -9.18431  10.761
 5.25 4.40 -0.446 -0.446 -0.446 -0.446 -0.445 14.72687 14.69007 -8.98436  13.546
 5.25 4.60 -0.444 -0.444 -0.443 -0.443 -0.443 14.92687 14.89011 -8.78434  17.053
 5.25 4.80 -0.440 -0.440 -0.440 -0.440 -0.439 15.12691 15.09018 -8.58425  21.467
 5.25 5.00 -0.435 -0.435 -0.435 -0.435 -0.434 15.32695 15.29026 -8.38416  27.024
 5.25 5.20 -0.427 -0.427 -0.427 -0.427 -0.426 15.52686 15.49027 -8.18412  34.017
 5.25 5.40 -0.415 -0.415 -0.415 -0.415 -0.414 15.72677 15.69028 -7.98408  42.821
 5.25 5.60 -0.398 -0.398 -0.398 -0.397 -0.397 15.92673 15.89032 -7.78404  53.902
 5.25 5.80 -0.373 -0.373 -0.373 -0.372 -0.372 16.12674 16.09040 -7.58399  67.851
 5.25 6.00 -0.338 -0.338 -0.338 -0.338 -0.337 16.32675 16.29048 -7.38395  85.410
 5.25 6.25 -0.278 -0.278 -0.278 -0.278 -0.277 16.57664 16.54049 -7.13383 113.870
 5.25 6.50 -0.195 -0.195 -0.195 -0.195 -0.194 16.82653 16.79050 -6.88372 151.810
 5.25 6.75 -0.087 -0.087 -0.087 -0.087 -0.086 17.07643 17.04059 -6.63368 202.390
 5.25 7.00  0.047  0.047  0.047  0.048  0.049 17.32634 17.29070 -6.38363 269.815
 5.25 7.25  0.206  0.206  0.206  0.207  0.208 17.57622 17.54083 -6.13353 359.672
 5.25 7.50  0.385  0.385  0.385  0.385  0.386 17.82607 17.79099 -5.88339 479.424
 5.25 7.75  0.591  0.591  0.591  0.592  0.592 18.07591 18.04117 -5.63322 639.015
 5.25 8.00  0.815  0.815  0.815  0.815  0.816 18.32572 18.29137 -5.38300 851.682
 5.30-2.00 -0.445 -0.445 -0.445 -0.444 -0.444  8.27715  8.24005-15.43439   0.008
 5.30-1.50 -0.445 -0.445 -0.445 -0.444 -0.444  8.77706  8.73989-14.93442   0.014
 5.30-1.00 -0.445 -0.445 -0.445 -0.444 -0.444  9.27715  9.24005-14.43439   0.024
 5.30-0.50 -0.445 -0.445 -0.445 -0.444 -0.444  9.77706  9.73997-13.93442   0.043
 5.30 0.00 -0.445 -0.445 -0.445 -0.444 -0.444 10.27715 10.24005-13.43439   0.076
 5.30 0.50 -0.445 -0.445 -0.445 -0.444 -0.444 10.77706 10.73997-12.93442   0.136
 5.30 1.00 -0.445 -0.445 -0.445 -0.444 -0.444 11.27715 11.24005-12.43439   0.241
 5.30 1.25 -0.445 -0.445 -0.445 -0.444 -0.444 11.52707 11.49001-12.18440   0.322
 5.30 1.50 -0.445 -0.445 -0.445 -0.444 -0.444 11.77699 11.73997-11.93442   0.429
 5.30 1.75 -0.445 -0.445 -0.445 -0.444 -0.444 12.02707 11.99001-11.68440   0.572
 5.30 2.00 -0.445 -0.445 -0.445 -0.444 -0.444 12.27715 12.24005-11.43439   0.762
 5.30 2.25 -0.445 -0.445 -0.445 -0.444 -0.444 12.52707 12.49001-11.18440   1.016
 5.30 2.50 -0.445 -0.445 -0.445 -0.444 -0.444 12.77699 12.73997-10.93442   1.355
 5.30 2.75 -0.445 -0.445 -0.445 -0.444 -0.444 13.02694 12.99001-10.68435   1.807
 5.30 3.00 -0.445 -0.445 -0.445 -0.444 -0.444 13.27692 13.24005-10.43427   2.410
 5.30 3.20 -0.445 -0.445 -0.445 -0.444 -0.444 13.47695 13.44005-10.23433   3.034
 5.30 3.40 -0.445 -0.445 -0.444 -0.444 -0.444 13.67698 13.64005-10.03439   3.819
 5.30 3.60 -0.444 -0.444 -0.444 -0.444 -0.443 13.87698 13.84005 -9.83439   4.808
 5.30 3.80 -0.444 -0.444 -0.444 -0.444 -0.443 14.07695 14.04005 -9.63433   6.052
 5.30 4.00 -0.444 -0.444 -0.444 -0.444 -0.443 14.27692 14.24005 -9.43427   7.619
 5.30 4.20 -0.443 -0.443 -0.443 -0.443 -0.442 14.47692 14.44007 -9.23433   9.591
 5.30 4.40 -0.443 -0.443 -0.443 -0.442 -0.442 14.67692 14.64011 -9.03439  12.074
 5.30 4.60 -0.441 -0.441 -0.441 -0.441 -0.440 14.87692 14.84016 -8.83437  15.200
 5.30 4.80 -0.440 -0.440 -0.440 -0.439 -0.439 15.07692 15.04023 -8.63426  19.134
 5.30 5.00 -0.437 -0.437 -0.437 -0.437 -0.436 15.27692 15.24030 -8.43415  24.087
 5.30 5.20 -0.432 -0.432 -0.432 -0.432 -0.432 15.47686 15.44026 -8.23410  30.321
 5.30 5.40 -0.426 -0.426 -0.426 -0.426 -0.425 15.67680 15.64022 -8.03406  38.168
 5.30 5.60 -0.416 -0.416 -0.416 -0.416 -0.415 15.87676 15.84022 -7.83404  48.046
 5.30 5.80 -0.402 -0.402 -0.402 -0.401 -0.401 16.07673 16.04025 -7.63403  60.480
 5.30 6.00 -0.381 -0.381 -0.381 -0.381 -0.380 16.27669 16.24030 -7.43403  76.132
 5.30 6.25 -0.343 -0.343 -0.343 -0.343 -0.342 16.52662 16.49037 -7.18404 101.503
 5.30 6.50 -0.287 -0.287 -0.287 -0.287 -0.286 16.77656 16.74044 -6.93405 135.326
 5.30 6.75 -0.210 -0.210 -0.210 -0.210 -0.209 17.02651 16.99050 -6.68387 180.419
 5.30 7.00 -0.108 -0.108 -0.108 -0.108 -0.107 17.27646 17.24055 -6.43368 240.534
 5.30 7.25  0.018  0.018  0.018  0.018  0.019 17.52633 17.49067 -6.18349 320.646
 5.30 7.50  0.162  0.162  0.162  0.162  0.163 17.77619 17.74084 -5.93330 427.422
 5.30 7.75  0.339  0.339  0.339  0.339  0.340 18.02609 17.99105 -5.68318 569.740
 5.30 8.00  0.537  0.537  0.537  0.537  0.537 18.27600 18.24130 -5.43309 759.420
