 ROSSELAND MASS ABSORPTION COEFFICIENTS [-1.0]
 logT logP  0km/s  1km/s  2km/s  4km/s  8km/s  log Ne   log Na  log rho IPloCM-1
 3.32-2.00 -5.729 -5.722 -5.710 -5.688 -5.660  4.40140 10.53995-13.13324   0.001
 3.32-1.50 -5.746 -5.739 -5.726 -5.703 -5.675  4.85400 11.04060-12.63246   0.001
 3.32-1.00 -5.762 -5.754 -5.741 -5.718 -5.690  5.29667 11.54370-12.12948   0.002
 3.32-0.50 -5.777 -5.770 -5.756 -5.732 -5.703  5.72198 12.05192-11.62124   0.004
 3.32 0.00 -5.785 -5.777 -5.763 -5.739 -5.710  6.14145 12.57334-11.09985   0.006
 3.32 0.50 -5.780 -5.772 -5.758 -5.734 -5.705  6.57264 13.11428-10.55878   0.010
 3.32 1.00 -5.758 -5.750 -5.736 -5.712 -5.684  7.02243 13.66792-10.00529   0.017
 3.32 1.25 -5.740 -5.731 -5.718 -5.694 -5.666  7.24529 13.94301 -9.73022   0.022
 3.32 1.50 -5.719 -5.711 -5.697 -5.674 -5.646  7.46509 14.21617 -9.45705   0.028
 3.32 1.75 -5.696 -5.688 -5.674 -5.652 -5.624  7.67015 14.48506 -9.18821   0.036
 3.32 2.00 -5.672 -5.664 -5.652 -5.630 -5.603  7.86386 14.75066 -8.92263   0.045
 3.32 2.25 -5.646 -5.639 -5.627 -5.607 -5.581  8.04404 15.01288 -8.66030   0.055
 3.32 2.50 -5.620 -5.613 -5.602 -5.583 -5.558  8.21564 15.27254 -8.40055   0.067
 3.32 2.75 -5.590 -5.584 -5.574 -5.556 -5.533  8.37942 15.53000 -8.14312   0.081
 3.32 3.00 -5.557 -5.551 -5.542 -5.526 -5.504  8.54033 15.78576 -7.88740   0.097
 3.32 3.20 -5.526 -5.521 -5.513 -5.498 -5.477  8.66730 15.98929 -7.68384   0.112
 3.32 3.40 -5.492 -5.487 -5.480 -5.466 -5.447  8.79427 16.19217 -7.48095   0.130
 3.32 3.60 -5.453 -5.449 -5.442 -5.430 -5.412  8.92195 16.39444 -7.27873   0.151
 3.32 3.80 -5.409 -5.405 -5.399 -5.389 -5.372  9.05111 16.59629 -7.07693   0.175
 3.32 4.00 -5.359 -5.356 -5.351 -5.342 -5.327  9.18127 16.79775 -6.87550   0.203
 3.32 4.20 -5.310 -5.307 -5.302 -5.293 -5.278  9.31330 16.99886 -6.67430   0.236
 3.32 4.40 -5.255 -5.252 -5.247 -5.238 -5.224  9.44533 17.19978 -6.47334   0.275
 3.32 4.60 -5.195 -5.192 -5.187 -5.178 -5.164  9.57677 17.40054 -6.27261   0.320
 3.32 4.80 -5.130 -5.127 -5.123 -5.114 -5.099  9.70636 17.60118 -6.07205   0.371
 3.32 5.00 -5.058 -5.055 -5.051 -5.042 -5.027  9.83430 17.80168 -5.87160   0.430
 3.32 5.20 -4.979 -4.976 -4.971 -4.962 -4.948  9.95821 18.00196 -5.67123   0.496
 3.32 5.40 -4.889 -4.886 -4.882 -4.873 -4.859 10.07904 18.20221 -5.47092   0.570
 3.32 5.60 -4.786 -4.783 -4.779 -4.771 -4.757 10.19649 18.40246 -5.27068   0.652
 3.32 5.80 -4.668 -4.665 -4.661 -4.653 -4.640 10.31092 18.60269 -5.07047   0.744
 3.32 6.00 -4.530 -4.528 -4.524 -4.516 -4.504 10.42275 18.80291 -4.87031   0.847
 3.32 6.25 -4.325 -4.323 -4.320 -4.313 -4.302 10.55941 19.05308 -4.62017   0.991
 3.32 6.50 -4.076 -4.075 -4.072 -4.066 -4.057 10.69338 19.30320 -4.37008   1.156
 3.32 6.75 -3.777 -3.775 -3.773 -3.768 -3.762 10.82513 19.55327 -4.12003   1.345
 3.32 7.00 -3.572 -3.571 -3.569 -3.565 -3.560 10.95521 19.80332 -3.86999   1.563
 3.32 7.25 -3.447 -3.446 -3.444 -3.440 -3.435 11.08396 20.05338 -3.61994   1.813
 3.32 7.50 -3.326 -3.325 -3.323 -3.320 -3.316 11.21165 20.30341 -3.36988   2.100
 3.32 7.75 -3.210 -3.209 -3.208 -3.205 -3.201 11.33858 20.55342 -3.11978   2.430
 3.32 8.00 -3.100 -3.099 -3.098 -3.095 -3.092 11.46464 20.80339 -2.86967   2.810
 3.34-2.00 -5.625 -5.618 -5.604 -5.582 -5.553  4.52061 10.51957-13.15366   0.001
 3.34-1.50 -5.664 -5.657 -5.643 -5.620 -5.591  4.92536 11.01995-12.65345   0.001
 3.34-1.00 -5.682 -5.675 -5.661 -5.637 -5.608  5.36324 11.52061-12.15249   0.002
 3.34-0.50 -5.687 -5.679 -5.665 -5.641 -5.610  5.80747 12.02325-11.64975   0.004
 3.34 0.00 -5.679 -5.671 -5.656 -5.631 -5.601  6.23930 12.53148-11.14164   0.007
 3.34 0.50 -5.656 -5.647 -5.632 -5.606 -5.576  6.66323 13.05231-10.62088   0.011
 3.34 1.00 -5.616 -5.607 -5.591 -5.566 -5.535  7.09307 13.59284-10.08029   0.018
 3.34 1.25 -5.590 -5.581 -5.565 -5.540 -5.508  7.31425 13.86949 -9.80362   0.023
 3.34 1.50 -5.559 -5.550 -5.535 -5.509 -5.478  7.53542 14.14613 -9.52695   0.030
 3.34 1.75 -5.524 -5.515 -5.500 -5.475 -5.444  7.75589 14.42132 -9.25179   0.038
 3.34 2.00 -5.487 -5.478 -5.464 -5.440 -5.409  7.97511 14.69478 -8.97840   0.049
 3.34 2.25 -5.448 -5.440 -5.426 -5.403 -5.374  8.18200 14.96387 -8.70929   0.062
 3.34 2.50 -5.410 -5.403 -5.390 -5.369 -5.341  8.37876 15.22968 -8.44346   0.079
 3.34 2.75 -5.373 -5.366 -5.354 -5.335 -5.309  8.56211 15.49219 -8.18101   0.098
 3.34 3.00 -5.336 -5.330 -5.320 -5.302 -5.277  8.73624 15.75205 -7.92118   0.119
 3.34 3.20 -5.305 -5.300 -5.290 -5.274 -5.251  8.86888 15.95816 -7.71502   0.138
 3.34 3.40 -5.273 -5.268 -5.260 -5.245 -5.224  8.99892 16.16318 -7.50995   0.161
 3.34 3.60 -5.239 -5.235 -5.227 -5.214 -5.194  9.12608 16.36719 -7.30591   0.186
 3.34 3.80 -5.201 -5.198 -5.191 -5.179 -5.161  9.25233 16.57049 -7.10260   0.215
 3.34 4.00 -5.160 -5.157 -5.151 -5.140 -5.124  9.37858 16.77313 -6.89997   0.249
 3.34 4.20 -5.119 -5.116 -5.111 -5.101 -5.085  9.50545 16.97522 -6.69797   0.288
 3.34 4.40 -5.074 -5.071 -5.066 -5.056 -5.040  9.63287 17.17691 -6.49634   0.334
 3.34 4.60 -5.025 -5.022 -5.017 -5.007 -4.992  9.76151 17.37822 -6.29505   0.387
 3.34 4.80 -4.973 -4.970 -4.965 -4.955 -4.940  9.89093 17.57928 -6.09398   0.449
 3.34 5.00 -4.916 -4.913 -4.908 -4.898 -4.883 10.02036 17.78010 -5.89313   0.521
 3.34 5.20 -4.856 -4.853 -4.848 -4.838 -4.823 10.14843 17.98075 -5.69247   0.604
 3.34 5.40 -4.792 -4.789 -4.785 -4.775 -4.760 10.27507 18.18127 -5.49192   0.698
 3.34 5.60 -4.725 -4.723 -4.718 -4.709 -4.694 10.39944 18.38169 -5.29146   0.805
 3.34 5.80 -4.657 -4.654 -4.650 -4.640 -4.626 10.52053 18.58204 -5.09107   0.926
 3.34 6.00 -4.586 -4.584 -4.579 -4.570 -4.556 10.63889 18.78233 -4.89076   1.061
 3.34 6.25 -4.497 -4.494 -4.490 -4.482 -4.468 10.78237 19.03263 -4.64057   1.252
 3.34 6.50 -4.406 -4.404 -4.400 -4.392 -4.379 10.92205 19.28285 -4.39041   1.470
 3.34 6.75 -4.315 -4.313 -4.309 -4.302 -4.290 11.05834 19.53298 -4.14024   1.720
 3.34 7.00 -4.225 -4.223 -4.219 -4.212 -4.201 11.19201 19.78305 -3.89008   2.006
 3.34 7.25 -4.134 -4.132 -4.129 -4.122 -4.112 11.32352 20.03306 -3.64003   2.334
 3.34 7.50 -4.044 -4.042 -4.039 -4.033 -4.023 11.45332 20.28308 -3.38998   2.710
 3.34 7.75 -3.955 -3.953 -3.950 -3.944 -3.936 11.58187 20.53315 -3.13988   3.142
 3.34 8.00 -3.866 -3.864 -3.861 -3.856 -3.848 11.70902 20.78326 -2.88975   3.638
 3.36-2.00 -5.467 -5.460 -5.446 -5.423 -5.394  4.74943 10.49941-13.17373   0.001
 3.36-1.50 -5.538 -5.530 -5.516 -5.492 -5.463  5.09132 10.99948-12.67366   0.002
 3.36-1.00 -5.587 -5.579 -5.565 -5.541 -5.510  5.46553 11.49982-12.17334   0.003
 3.36-0.50 -5.607 -5.599 -5.584 -5.559 -5.528  5.87933 12.00087-11.67244   0.004
 3.36 0.00 -5.596 -5.588 -5.573 -5.547 -5.515  6.31597 12.50352-11.16960   0.007
 3.36 0.50 -5.557 -5.548 -5.533 -5.506 -5.474  6.75074 13.01157-10.66134   0.012
 3.36 1.00 -5.491 -5.481 -5.465 -5.438 -5.404  7.17898 13.53301-10.14020   0.019
 3.36 1.25 -5.450 -5.440 -5.424 -5.396 -5.363  7.39400 13.80167 -9.87167   0.025
 3.36 1.50 -5.406 -5.396 -5.380 -5.352 -5.318  7.61002 14.07408 -9.59929   0.032
 3.36 1.75 -5.360 -5.350 -5.334 -5.308 -5.274  7.82904 14.35073 -9.32252   0.041
 3.36 2.00 -5.312 -5.303 -5.287 -5.261 -5.229  8.04805 14.62737 -9.04576   0.053
 3.36 2.25 -5.261 -5.252 -5.238 -5.214 -5.183  8.26606 14.90248 -8.77066   0.068
 3.36 2.50 -5.209 -5.201 -5.188 -5.165 -5.136  8.48244 15.17580 -8.49744   0.087
 3.36 2.75 -5.157 -5.150 -5.138 -5.117 -5.089  8.68915 15.44473 -8.22835   0.110
 3.36 3.00 -5.107 -5.100 -5.089 -5.070 -5.044  8.88694 15.71037 -7.96257   0.138
 3.36 3.20 -5.067 -5.061 -5.051 -5.033 -5.009  9.03552 15.92047 -7.75265   0.164
 3.36 3.40 -5.029 -5.023 -5.014 -4.998 -4.975  9.17815 16.12890 -7.54435   0.193
 3.36 3.60 -4.990 -4.985 -4.977 -4.962 -4.941  9.31443 16.33566 -7.33757   0.226
 3.36 3.80 -4.950 -4.946 -4.939 -4.925 -4.906  9.44648 16.54118 -7.13192   0.263
 3.36 4.00 -4.908 -4.905 -4.899 -4.887 -4.869  9.57542 16.74562 -6.92738   0.305
 3.36 4.20 -4.869 -4.865 -4.860 -4.849 -4.831  9.70111 16.94920 -6.72390   0.353
 3.36 4.40 -4.826 -4.823 -4.817 -4.807 -4.790  9.82680 17.15213 -6.52105   0.407
 3.36 4.60 -4.780 -4.778 -4.772 -4.762 -4.745  9.95248 17.35441 -6.31878   0.471
 3.36 4.80 -4.732 -4.730 -4.724 -4.714 -4.698 10.07817 17.55626 -6.11691   0.544
 3.36 5.00 -4.679 -4.676 -4.671 -4.661 -4.645 10.20385 17.75770 -5.91542   0.629
 3.36 5.20 -4.622 -4.619 -4.614 -4.604 -4.589 10.33082 17.95880 -5.71435   0.728
 3.36 5.40 -4.559 -4.556 -4.552 -4.542 -4.527 10.45778 18.15970 -5.51345   0.842
 3.36 5.60 -4.492 -4.489 -4.484 -4.475 -4.460 10.58432 18.36044 -5.31270   0.974
 3.36 5.80 -4.420 -4.418 -4.413 -4.404 -4.390 10.70949 18.56106 -5.11204   1.125
 3.36 6.00 -4.346 -4.344 -4.340 -4.331 -4.317 10.83340 18.76155 -4.91151   1.297
 3.36 6.25 -4.251 -4.249 -4.245 -4.237 -4.224 10.98381 19.01190 -4.66112   1.543
 3.36 6.50 -4.155 -4.153 -4.149 -4.142 -4.130 11.13033 19.26221 -4.41083   1.827
 3.36 6.75 -4.059 -4.057 -4.054 -4.047 -4.036 11.27266 19.51253 -4.16062   2.152
 3.36 7.00 -3.964 -3.962 -3.959 -3.952 -3.943 11.41145 19.76283 -3.91045   2.524
 3.36 7.25 -3.870 -3.869 -3.866 -3.860 -3.851 11.54689 20.01288 -3.66029   2.950
 3.36 7.50 -3.778 -3.777 -3.774 -3.768 -3.760 11.67979 20.26293 -3.41016   3.438
 3.36 7.75 -3.688 -3.686 -3.684 -3.679 -3.671 11.81081 20.51304 -3.16010   3.998
 3.36 8.00 -3.599 -3.597 -3.595 -3.590 -3.584 11.93972 20.76320 -2.91010   4.637
 3.38-2.00 -5.291 -5.284 -5.271 -5.248 -5.220  5.00689 10.47943-13.19375   0.002
 3.38-1.50 -5.372 -5.364 -5.351 -5.326 -5.297  5.33706 10.97941-12.69379   0.002
 3.38-1.00 -5.445 -5.437 -5.422 -5.397 -5.366  5.66792 11.47958-12.19362   0.003
 3.38-0.50 -5.496 -5.488 -5.473 -5.447 -5.415  6.01870 11.97982-11.69336   0.005
 3.38 0.00 -5.510 -5.502 -5.486 -5.460 -5.427  6.40603 12.48087-11.19233   0.008
 3.38 0.50 -5.477 -5.468 -5.452 -5.425 -5.391  6.82679 12.98381-10.68931   0.013
 3.38 1.00 -5.396 -5.386 -5.370 -5.341 -5.307  7.25912 13.49262-10.18052   0.021
 3.38 1.25 -5.340 -5.331 -5.314 -5.286 -5.250  7.47474 13.75177 -9.92136   0.027
 3.38 1.50 -5.279 -5.269 -5.253 -5.224 -5.189  7.69037 14.01494 -9.65817   0.034
 3.38 1.75 -5.214 -5.205 -5.189 -5.161 -5.126  7.90687 14.28425 -9.38890   0.044
 3.38 2.00 -5.148 -5.139 -5.123 -5.097 -5.062  8.12385 14.55715 -9.11600   0.056
 3.38 2.25 -5.083 -5.074 -5.059 -5.034 -5.002  8.34146 14.83387 -8.83920   0.072
 3.38 2.50 -5.017 -5.009 -4.995 -4.972 -4.941  8.55907 15.11059 -8.56241   0.092
 3.38 2.75 -4.951 -4.943 -4.931 -4.909 -4.880  8.77481 15.38546 -8.28756   0.118
 3.38 3.00 -4.884 -4.877 -4.866 -4.846 -4.819  8.98802 15.65830 -8.01480   0.152
 3.38 3.20 -4.830 -4.824 -4.814 -4.795 -4.770  9.15279 15.87335 -7.79974   0.184
 3.38 3.40 -4.778 -4.772 -4.763 -4.746 -4.722  9.31238 16.08631 -7.58678   0.221
 3.38 3.60 -4.727 -4.722 -4.713 -4.698 -4.676  9.46538 16.29713 -7.37603   0.263
 3.38 3.80 -4.677 -4.673 -4.665 -4.651 -4.631  9.61132 16.50614 -7.16710   0.311
 3.38 4.00 -4.628 -4.625 -4.618 -4.606 -4.588  9.75143 16.71349 -6.95979   0.365
 3.38 4.20 -4.584 -4.581 -4.575 -4.564 -4.546  9.88535 16.91930 -6.75386   0.426
 3.38 4.40 -4.539 -4.536 -4.531 -4.520 -4.503 10.01589 17.12408 -6.54900   0.495
 3.38 4.60 -4.495 -4.492 -4.487 -4.477 -4.460 10.14282 17.32791 -6.34520   0.573
 3.38 4.80 -4.450 -4.447 -4.442 -4.432 -4.416 10.26816 17.53107 -6.14213   0.662
 3.38 5.00 -4.401 -4.398 -4.393 -4.383 -4.368 10.39287 17.73360 -5.93968   0.764
 3.38 5.20 -4.349 -4.347 -4.342 -4.333 -4.317 10.51714 17.93555 -5.73766   0.881
 3.38 5.40 -4.293 -4.290 -4.286 -4.277 -4.262 10.64141 18.13714 -5.53602   1.017
 3.38 5.60 -4.231 -4.228 -4.224 -4.215 -4.201 10.76600 18.33841 -5.33475   1.173
 3.38 5.80 -4.164 -4.161 -4.157 -4.149 -4.135 10.89089 18.53946 -5.13373   1.355
 3.38 6.00 -4.092 -4.090 -4.086 -4.078 -4.065 11.01578 18.74028 -4.93293   1.564
 3.38 6.25 -3.998 -3.996 -3.993 -3.985 -3.973 11.16985 18.99099 -4.68216   1.868
 3.38 6.50 -3.901 -3.899 -3.896 -3.889 -3.878 11.32181 19.24155 -4.43156   2.225
 3.38 6.75 -3.803 -3.801 -3.798 -3.791 -3.782 11.46990 19.49203 -4.18107   2.638
 3.38 7.00 -3.705 -3.703 -3.700 -3.694 -3.686 11.61448 19.74241 -3.93070   3.116
 3.38 7.25 -3.609 -3.607 -3.604 -3.599 -3.591 11.75500 19.99263 -3.68055   3.664
 3.38 7.50 -3.514 -3.513 -3.510 -3.506 -3.499 11.89226 20.24279 -3.43039   4.291
 3.38 7.75 -3.423 -3.421 -3.419 -3.415 -3.408 12.02677 20.49293 -3.18019   5.009
 3.38 8.00 -3.333 -3.332 -3.330 -3.326 -3.320 12.15836 20.74304 -2.92996   5.828
 3.40-2.00 -5.133 -5.126 -5.114 -5.092 -5.066  5.21932 10.45939-13.21375   0.002
 3.40-1.50 -5.204 -5.197 -5.183 -5.160 -5.132  5.57795 10.95938-12.71377   0.003
 3.40-1.00 -5.279 -5.271 -5.257 -5.232 -5.202  5.91418 11.45939-12.21375   0.004
 3.40-0.50 -5.346 -5.338 -5.323 -5.296 -5.264  6.24155 11.95952-11.71354   0.006
 3.40 0.00 -5.388 -5.379 -5.363 -5.336 -5.303  6.57807 12.45984-11.21325   0.009
 3.40 0.50 -5.383 -5.374 -5.357 -5.329 -5.294  6.94216 12.96099-10.71220   0.014
 3.40 1.00 -5.313 -5.304 -5.287 -5.258 -5.222  7.34282 13.46434-10.20873   0.022
 3.40 1.25 -5.254 -5.245 -5.228 -5.199 -5.163  7.55361 13.71813 -9.95495   0.028
 3.40 1.50 -5.183 -5.174 -5.157 -5.128 -5.092  7.76716 13.97414 -9.69897   0.036
 3.40 1.75 -5.102 -5.093 -5.077 -5.049 -5.013  7.98227 14.23420 -9.43896   0.046
 3.40 2.00 -5.015 -5.007 -4.992 -4.965 -4.930  8.19866 14.49845 -9.17477   0.060
 3.40 2.25 -4.927 -4.918 -4.904 -4.879 -4.845  8.41637 14.76891 -8.90442   0.077
 3.40 2.50 -4.838 -4.830 -4.816 -4.792 -4.761  8.63407 15.04258 -8.63078   0.099
 3.40 2.75 -4.751 -4.744 -4.731 -4.709 -4.680  8.85131 15.31937 -8.35387   0.127
 3.40 3.00 -4.666 -4.660 -4.648 -4.628 -4.600  9.06781 15.59616 -8.07696   0.162
 3.40 3.20 -4.600 -4.593 -4.583 -4.564 -4.538  9.23890 15.81580 -7.85726   0.197
 3.40 3.40 -4.534 -4.528 -4.519 -4.502 -4.478  9.40761 16.03391 -7.63911   0.240
 3.40 3.60 -4.469 -4.464 -4.455 -4.440 -4.418  9.57312 16.24992 -7.42311   0.290
 3.40 3.80 -4.405 -4.401 -4.393 -4.379 -4.359  9.73354 16.46343 -7.20965   0.349
 3.40 4.00 -4.343 -4.340 -4.334 -4.322 -4.303  9.88908 16.67486 -6.99827   0.418
 3.40 4.20 -4.288 -4.285 -4.280 -4.268 -4.251 10.03713 16.88411 -6.78904   0.496
 3.40 4.40 -4.236 -4.233 -4.228 -4.217 -4.201 10.17958 17.09180 -6.58135   0.584
 3.40 4.60 -4.186 -4.184 -4.179 -4.169 -4.153 10.31593 17.29801 -6.37509   0.683
 3.40 4.80 -4.139 -4.137 -4.132 -4.123 -4.108 10.44779 17.50314 -6.16991   0.795
 3.40 5.00 -4.092 -4.090 -4.085 -4.076 -4.061 10.57623 17.70723 -5.96577   0.922
 3.40 5.20 -4.044 -4.042 -4.038 -4.029 -4.015 10.70158 17.91039 -5.76264   1.065
 3.40 5.40 -3.994 -3.992 -3.987 -3.979 -3.965 10.82590 18.11297 -5.56010   1.229
 3.40 5.60 -3.939 -3.937 -3.933 -3.925 -3.912 10.94922 18.31505 -5.35809   1.416
 3.40 5.80 -3.880 -3.878 -3.874 -3.867 -3.854 11.07221 18.51679 -5.15641   1.631
 3.40 6.00 -3.816 -3.815 -3.811 -3.804 -3.792 11.19507 18.71817 -4.95507   1.879
 3.40 6.25 -3.731 -3.729 -3.726 -3.719 -3.708 11.34865 18.96942 -4.70372   2.243
 3.40 6.50 -3.639 -3.637 -3.634 -3.628 -3.618 11.50202 19.22037 -4.45272   2.676
 3.40 6.75 -3.544 -3.542 -3.539 -3.534 -3.525 11.65334 19.47114 -4.20207   3.185
 3.40 7.00 -3.447 -3.445 -3.443 -3.438 -3.430 11.80250 19.72173 -3.95156   3.782
 3.40 7.25 -3.350 -3.349 -3.346 -3.342 -3.335 11.94786 19.97215 -3.70111   4.471
 3.40 7.50 -3.255 -3.254 -3.252 -3.247 -3.241 12.08991 20.22246 -3.45075   5.265
 3.40 7.75 -3.162 -3.161 -3.159 -3.155 -3.150 12.22854 20.47271 -3.20052   6.176
 3.40 8.00 -3.073 -3.072 -3.070 -3.066 -3.061 12.36380 20.72288 -2.95039   7.216
 3.42-2.00 -5.012 -5.006 -4.994 -4.974 -4.949  5.35736 10.43949-13.23374   0.002
 3.42-1.50 -5.061 -5.054 -5.042 -5.020 -4.993  5.76072 10.93942-12.73377   0.004
 3.42-1.00 -5.121 -5.114 -5.100 -5.077 -5.048  6.13290 11.43949-12.23366   0.005
 3.42-0.50 -5.185 -5.177 -5.162 -5.136 -5.105  6.47799 11.93947-11.73377   0.008
 3.42 0.00 -5.236 -5.227 -5.211 -5.184 -5.150  6.80686 12.43965-11.23351   0.012
 3.42 0.50 -5.251 -5.242 -5.226 -5.197 -5.161  7.13577 12.94002-10.73306   0.017
 3.42 1.00 -5.208 -5.199 -5.181 -5.152 -5.115  7.48302 13.44138-10.23181   0.026
 3.42 1.25 -5.159 -5.149 -5.132 -5.103 -5.066  7.66937 13.69287 -9.98035   0.032
 3.42 1.50 -5.092 -5.083 -5.066 -5.037 -5.000  7.86386 13.94532 -9.72793   0.040
 3.42 1.75 -5.008 -4.999 -4.983 -4.955 -4.918  8.06732 14.19974 -9.47349   0.050
 3.42 2.00 -4.911 -4.903 -4.887 -4.860 -4.824  8.27623 14.45667 -9.21653   0.064
 3.42 2.25 -4.804 -4.796 -4.781 -4.755 -4.721  8.48950 14.71795 -8.95519   0.081
 3.42 2.50 -4.690 -4.683 -4.670 -4.645 -4.613  8.70527 14.98358 -8.68952   0.104
 3.42 2.75 -4.576 -4.569 -4.557 -4.535 -4.505  8.92336 15.25564 -8.41756   0.134
 3.42 3.00 -4.465 -4.458 -4.447 -4.427 -4.399  9.14145 15.53020 -8.14303   0.173
 3.42 3.20 -4.380 -4.374 -4.364 -4.345 -4.319  9.31500 15.75152 -7.92164   0.211
 3.42 3.40 -4.298 -4.293 -4.284 -4.267 -4.243  9.48749 15.97284 -7.70025   0.257
 3.42 3.60 -4.220 -4.215 -4.207 -4.192 -4.170  9.65833 16.19329 -7.47978   0.313
 3.42 3.80 -4.144 -4.140 -4.133 -4.120 -4.100  9.82611 16.41155 -7.26153   0.380
 3.42 4.00 -4.071 -4.068 -4.062 -4.050 -4.033  9.99096 16.62808 -7.04503   0.459
 3.42 4.20 -4.004 -4.001 -3.996 -3.985 -3.969 10.15133 16.84171 -6.83139   0.552
 3.42 4.40 -3.940 -3.937 -3.932 -3.923 -3.908 10.30692 17.05332 -6.61976   0.661
 3.42 4.60 -3.881 -3.878 -3.874 -3.865 -3.851 10.45678 17.26290 -6.41015   0.785
 3.42 4.80 -3.826 -3.824 -3.820 -3.811 -3.798 10.60054 17.47087 -6.20217   0.926
 3.42 5.00 -3.774 -3.772 -3.768 -3.760 -3.747 10.73902 17.67733 -5.99568   1.086
 3.42 5.20 -3.725 -3.723 -3.720 -3.712 -3.699 10.87172 17.88243 -5.79059   1.265
 3.42 5.40 -3.676 -3.674 -3.671 -3.663 -3.652 11.00106 18.08661 -5.58641   1.469
 3.42 5.60 -3.626 -3.624 -3.621 -3.614 -3.603 11.12696 18.28996 -5.38302   1.698
 3.42 5.80 -3.574 -3.572 -3.569 -3.562 -3.551 11.25102 18.49274 -5.18021   1.959
 3.42 6.00 -3.518 -3.517 -3.514 -3.507 -3.497 11.37383 18.69496 -4.97798   2.256
 3.42 6.25 -3.444 -3.442 -3.439 -3.433 -3.424 11.52636 18.94706 -4.72607   2.689
 3.42 6.50 -3.363 -3.361 -3.359 -3.353 -3.344 11.67806 19.19866 -4.47457   3.202
 3.42 6.75 -3.276 -3.275 -3.272 -3.267 -3.259 11.82942 19.44988 -4.22326   3.812
 3.42 7.00 -3.185 -3.184 -3.182 -3.177 -3.170 11.97987 19.70079 -3.97224   4.533
 3.42 7.25 -3.092 -3.091 -3.089 -3.085 -3.078 12.12819 19.95145 -3.72165   5.377
 3.42 7.50 -2.999 -2.998 -2.996 -2.992 -2.986 12.27416 20.20194 -3.47121   6.361
 3.42 7.75 -2.907 -2.906 -2.904 -2.901 -2.895 12.41657 20.45234 -3.22086   7.494
 3.42 8.00 -2.818 -2.817 -2.815 -2.812 -2.807 12.55582 20.70260 -2.97062   8.797
 3.44-2.00 -4.928 -4.922 -4.911 -4.891 -4.868  5.43152 10.41946-13.25368   0.002
 3.44-1.50 -4.955 -4.948 -4.937 -4.916 -4.891  5.87373 10.91939-12.75375   0.004
 3.44-1.00 -4.993 -4.986 -4.973 -4.951 -4.924  6.28937 11.41946-12.25368   0.006
 3.44-0.50 -5.038 -5.031 -5.017 -4.993 -4.963  6.67468 11.91944-11.75375   0.010
 3.44 0.00 -5.080 -5.072 -5.057 -5.030 -4.998  7.02979 12.41946-11.25360   0.015
 3.44 0.50 -5.098 -5.089 -5.073 -5.045 -5.009  7.36286 12.91965-10.75350   0.022
 3.44 1.00 -5.067 -5.057 -5.040 -5.011 -4.974  7.68878 13.42012-10.25298   0.032
 3.44 1.25 -5.027 -5.017 -5.001 -4.971 -4.933  7.85497 13.67072-10.00234   0.039
 3.44 1.50 -4.970 -4.961 -4.944 -4.915 -4.877  8.02490 13.92174 -9.75129   0.047
 3.44 1.75 -4.894 -4.885 -4.869 -4.841 -4.803  8.20308 14.17361 -9.49949   0.058
 3.44 2.00 -4.801 -4.793 -4.777 -4.750 -4.713  8.38899 14.42667 -9.24657   0.071
 3.44 2.25 -4.691 -4.682 -4.668 -4.642 -4.607  8.58463 14.68191 -8.99137   0.089
 3.44 2.50 -4.567 -4.559 -4.546 -4.521 -4.488  8.78760 14.93997 -8.73330   0.112
 3.44 2.75 -4.433 -4.426 -4.414 -4.391 -4.360  8.99771 15.20304 -8.47015   0.143
 3.44 3.00 -4.297 -4.290 -4.279 -4.259 -4.231  9.21165 15.47056 -8.20253   0.183
 3.44 3.20 -4.190 -4.184 -4.174 -4.156 -4.130  9.38567 15.68934 -7.98365   0.224
 3.44 3.40 -4.087 -4.082 -4.073 -4.057 -4.033  9.55969 15.90920 -7.76377   0.273
 3.44 3.60 -3.990 -3.986 -3.978 -3.963 -3.943  9.73324 16.13015 -7.54287   0.334
 3.44 3.80 -3.899 -3.895 -3.889 -3.876 -3.858  9.90528 16.35140 -7.32172   0.407
 3.44 4.00 -3.813 -3.810 -3.805 -3.794 -3.778 10.07591 16.57264 -7.10056   0.495
 3.44 4.20 -3.736 -3.733 -3.728 -3.719 -3.704 10.24301 16.79092 -6.88232   0.600
 3.44 4.40 -3.662 -3.660 -3.656 -3.647 -3.633 10.40670 17.00721 -6.66603   0.724
 3.44 4.60 -3.594 -3.591 -3.588 -3.580 -3.567 10.56668 17.22117 -6.45204   0.870
 3.44 4.80 -3.530 -3.528 -3.524 -3.517 -3.505 10.72194 17.43284 -6.24033   1.041
 3.44 5.00 -3.469 -3.467 -3.464 -3.457 -3.446 10.87245 17.64256 -6.03059   1.238
 3.44 5.20 -3.414 -3.412 -3.409 -3.402 -3.392 11.01660 17.85052 -5.82270   1.461
 3.44 5.40 -3.361 -3.359 -3.356 -3.350 -3.340 11.15578 18.05709 -5.61618   1.715
 3.44 5.60 -3.310 -3.308 -3.305 -3.299 -3.290 11.28961 18.26232 -5.41096   2.001
 3.44 5.80 -3.259 -3.258 -3.255 -3.249 -3.240 11.41940 18.46657 -5.20666   2.323
 3.44 6.00 -3.208 -3.207 -3.204 -3.199 -3.190 11.54593 18.66997 -5.00323   2.688
 3.44 6.25 -3.142 -3.140 -3.138 -3.133 -3.125 11.70032 18.92328 -4.74995   3.211
 3.44 6.50 -3.071 -3.070 -3.068 -3.063 -3.055 11.85254 19.17580 -4.49744   3.826
 3.44 6.75 -2.995 -2.994 -2.992 -2.988 -2.981 12.00352 19.42772 -4.24546   4.552
 3.44 7.00 -2.915 -2.914 -2.912 -2.907 -2.901 12.15321 19.67916 -3.99396   5.407
 3.44 7.25 -2.830 -2.829 -2.827 -2.823 -2.817 12.30201 19.93020 -3.74294   6.418
 3.44 7.50 -2.743 -2.742 -2.740 -2.736 -2.730 12.44932 20.18099 -3.49215   7.605
 3.44 7.75 -2.654 -2.654 -2.652 -2.648 -2.643 12.59414 20.43162 -3.24148   8.985
 3.44 8.00 -2.567 -2.566 -2.565 -2.561 -2.556 12.73680 20.68206 -2.99097  10.589
 3.46-2.00 -4.876 -4.871 -4.861 -4.843 -4.821  5.45225 10.39933-13.27376   0.002
 3.46-1.50 -4.882 -4.876 -4.865 -4.846 -4.822  5.92845 10.89938-12.77366   0.004
 3.46-1.00 -4.899 -4.893 -4.881 -4.860 -4.834  6.38130 11.39950-12.27376   0.007
 3.46-0.50 -4.923 -4.916 -4.903 -4.880 -4.851  6.80740 11.89938-11.77366   0.011
 3.46 0.00 -4.944 -4.936 -4.922 -4.897 -4.866  7.20412 12.39950-11.27368   0.018
 3.46 0.50 -4.947 -4.939 -4.923 -4.896 -4.861  7.56914 12.89949-10.77366   0.027
 3.46 1.00 -4.909 -4.900 -4.884 -4.855 -4.818  7.90838 13.39967-10.27344   0.040
 3.46 1.25 -4.869 -4.860 -4.843 -4.814 -4.776  8.07132 13.64991-10.02323   0.048
 3.46 1.50 -4.813 -4.804 -4.788 -4.759 -4.721  8.23426 13.90031 -9.77289   0.058
 3.46 1.75 -4.741 -4.732 -4.716 -4.688 -4.650  8.39826 14.15111 -9.52210   0.070
 3.46 2.00 -4.653 -4.644 -4.629 -4.602 -4.565  8.56384 14.40243 -9.27075   0.085
 3.46 2.25 -4.548 -4.540 -4.525 -4.499 -4.464  8.73611 14.65471 -9.01845   0.104
 3.46 2.50 -4.428 -4.420 -4.407 -4.382 -4.349  8.91503 14.90838 -8.76472   0.127
 3.46 2.75 -4.293 -4.286 -4.274 -4.251 -4.220  9.10379 15.16488 -8.50823   0.158
 3.46 3.00 -4.148 -4.142 -4.131 -4.111 -4.083  9.30081 15.42472 -8.24841   0.198
 3.46 3.20 -4.029 -4.023 -4.013 -3.995 -3.970  9.46541 15.63663 -8.03648   0.239
 3.46 3.40 -3.910 -3.905 -3.896 -3.880 -3.857  9.63318 15.85135 -7.82174   0.290
 3.46 3.60 -3.795 -3.790 -3.783 -3.769 -3.749  9.80463 16.07008 -7.60302   0.354
 3.46 3.80 -3.686 -3.682 -3.676 -3.663 -3.646  9.97739 16.29071 -7.38243   0.432
 3.46 4.00 -3.583 -3.580 -3.575 -3.565 -3.550 10.15014 16.51135 -7.16184   0.527
 3.46 4.20 -3.491 -3.489 -3.484 -3.475 -3.462 10.32126 16.73193 -6.94127   0.642
 3.46 4.40 -3.406 -3.403 -3.399 -3.392 -3.380 10.49067 16.95239 -6.72073   0.780
 3.46 4.60 -3.327 -3.325 -3.322 -3.315 -3.304 10.65747 17.17142 -6.50167   0.945
 3.46 4.80 -3.255 -3.253 -3.250 -3.243 -3.233 10.82020 17.38755 -6.28560   1.139
 3.46 5.00 -3.186 -3.185 -3.182 -3.175 -3.166 10.97923 17.60163 -6.07160   1.368
 3.46 5.20 -3.123 -3.122 -3.119 -3.113 -3.104 11.13372 17.81321 -5.86008   1.634
 3.46 5.40 -3.063 -3.062 -3.059 -3.054 -3.045 11.28349 18.02294 -5.65039   1.942
 3.46 5.60 -3.006 -3.005 -3.003 -2.997 -2.989 11.42795 18.23081 -5.44250   2.293
 3.46 5.80 -2.952 -2.951 -2.949 -2.944 -2.936 11.56715 18.43727 -5.23598   2.691
 3.46 6.00 -2.900 -2.899 -2.897 -2.892 -2.885 11.70166 18.64247 -5.03072   3.142
 3.46 6.25 -2.836 -2.835 -2.833 -2.829 -2.822 11.86325 18.89750 -4.77563   3.785
 3.46 6.50 -2.772 -2.771 -2.769 -2.764 -2.758 12.01995 19.15137 -4.52172   4.533
 3.46 6.75 -2.705 -2.704 -2.702 -2.698 -2.691 12.17257 19.40438 -4.26876   5.404
 3.46 7.00 -2.634 -2.633 -2.631 -2.627 -2.621 12.32284 19.65667 -4.01651   6.425
 3.46 7.25 -2.559 -2.558 -2.556 -2.553 -2.547 12.47174 19.90832 -3.76484   7.626
 3.46 7.50 -2.480 -2.480 -2.478 -2.474 -2.469 12.61899 20.15957 -3.51357   9.034
 3.46 7.75 -2.399 -2.399 -2.397 -2.394 -2.389 12.76463 20.41056 -3.26257  10.683
 3.46 8.00 -2.317 -2.317 -2.315 -2.312 -2.307 12.90865 20.66124 -3.01189  12.611
 3.48-2.00 -4.846 -4.842 -4.834 -4.820 -4.802  5.44467 10.37912-13.29405   0.002
 3.48-1.50 -4.840 -4.835 -4.826 -4.809 -4.788  5.93717 10.87910-12.79398   0.004
 3.48-1.00 -4.838 -4.832 -4.821 -4.802 -4.778  6.41979 11.37912-12.29405   0.007
 3.48-0.50 -4.840 -4.834 -4.821 -4.800 -4.774  6.88218 11.87910-11.79398   0.012
 3.48 0.00 -4.840 -4.833 -4.819 -4.795 -4.766  7.31785 12.37912-11.29405   0.020
 3.48 0.50 -4.820 -4.812 -4.797 -4.770 -4.737  7.72477 12.87910-10.79398   0.032
 3.48 1.00 -4.760 -4.751 -4.735 -4.707 -4.670  8.09968 13.37931-10.29388   0.049
 3.48 1.25 -4.710 -4.701 -4.685 -4.656 -4.619  8.27542 13.62940-10.04381   0.059
 3.48 1.50 -4.645 -4.637 -4.620 -4.592 -4.554  8.44560 13.87950 -9.79371   0.072
 3.48 1.75 -4.567 -4.558 -4.542 -4.514 -4.477  8.61007 14.12982 -9.54337   0.087
 3.48 2.00 -4.474 -4.466 -4.451 -4.423 -4.387  8.77357 14.38039 -9.29277   0.105
 3.48 2.25 -4.368 -4.361 -4.346 -4.320 -4.286  8.93645 14.63137 -9.04180   0.127
 3.48 2.50 -4.251 -4.244 -4.230 -4.206 -4.174  9.09934 14.88298 -8.79022   0.153
 3.48 2.75 -4.121 -4.115 -4.103 -4.081 -4.051  9.26771 15.13596 -8.53724   0.186
 3.48 3.00 -3.982 -3.976 -3.966 -3.946 -3.919  9.44154 15.39076 -8.28241   0.228
 3.48 3.20 -3.864 -3.859 -3.849 -3.832 -3.808  9.58740 15.59697 -8.07615   0.269
 3.48 3.40 -3.743 -3.739 -3.730 -3.715 -3.693  9.73865 15.80561 -7.86746   0.320
 3.48 3.60 -3.621 -3.617 -3.610 -3.597 -3.578  9.89648 16.01754 -7.65554   0.384
 3.48 3.80 -3.501 -3.498 -3.492 -3.480 -3.464 10.05949 16.23285 -7.44029   0.463
 3.48 4.00 -3.385 -3.383 -3.377 -3.368 -3.354 10.22608 16.45071 -7.22250   0.561
 3.48 4.20 -3.279 -3.276 -3.272 -3.264 -3.251 10.39655 16.67198 -7.00125   0.683
 3.48 4.40 -3.179 -3.177 -3.173 -3.166 -3.155 10.56701 16.89326 -6.78001   0.831
 3.48 4.60 -3.087 -3.085 -3.082 -3.076 -3.066 10.73686 17.11420 -6.55907   1.011
 3.48 4.80 -3.003 -3.002 -2.999 -2.993 -2.984 10.90472 17.33407 -6.33917   1.227
 3.48 5.00 -2.925 -2.924 -2.921 -2.916 -2.908 11.07078 17.55291 -6.12027   1.485
 3.48 5.20 -2.854 -2.853 -2.850 -2.845 -2.837 11.23238 17.76873 -5.90453   1.789
 3.48 5.40 -2.787 -2.786 -2.784 -2.779 -2.771 11.39008 17.98243 -5.69089   2.144
 3.48 5.60 -2.724 -2.723 -2.721 -2.716 -2.709 11.54360 18.19385 -5.47944   2.559
 3.48 5.80 -2.664 -2.663 -2.661 -2.657 -2.650 11.69237 18.40331 -5.26988   3.037
 3.48 6.00 -2.607 -2.606 -2.604 -2.600 -2.594 11.83645 18.61109 -5.06203   3.585
 3.48 6.25 -2.540 -2.539 -2.537 -2.534 -2.527 12.00883 18.86884 -4.80441   4.373
 3.48 6.50 -2.476 -2.475 -2.473 -2.469 -2.463 12.17435 19.12483 -4.54852   5.291
 3.48 6.75 -2.412 -2.411 -2.409 -2.406 -2.400 12.33334 19.37929 -4.29400   6.353
 3.48 7.00 -2.347 -2.347 -2.345 -2.342 -2.336 12.48770 19.63266 -4.04053   7.588
 3.48 7.25 -2.281 -2.280 -2.278 -2.275 -2.270 12.63833 19.88513 -3.78793   9.024
 3.48 7.50 -2.211 -2.210 -2.209 -2.206 -2.201 12.78625 20.13704 -3.53596  10.700
 3.48 7.75 -2.139 -2.138 -2.136 -2.133 -2.129 12.93233 20.38861 -3.28442  12.660
 3.48 8.00 -2.064 -2.064 -2.062 -2.059 -2.054 13.07628 20.63979 -3.03339  14.944
 3.50-2.00 -4.814 -4.812 -4.806 -4.797 -4.785  5.44170 10.35946-13.31372   0.002
 3.50-1.50 -4.811 -4.808 -4.801 -4.788 -4.773  5.92932 10.85938-12.81389   0.004
 3.50-1.00 -4.802 -4.798 -4.789 -4.773 -4.753  6.42111 11.35946-12.31372   0.007
 3.50-0.50 -4.789 -4.783 -4.772 -4.754 -4.730  6.90703 11.85938-11.81389   0.012
 3.50 0.00 -4.768 -4.761 -4.749 -4.727 -4.700  7.37603 12.35946-11.31372   0.021
 3.50 0.50 -4.725 -4.718 -4.704 -4.679 -4.648  7.81889 12.85944-10.81361   0.034
 3.50 1.00 -4.638 -4.630 -4.615 -4.588 -4.553  8.23300 13.35946-10.31363   0.055
 3.50 1.25 -4.574 -4.565 -4.549 -4.522 -4.486  8.42796 13.60949-10.06363   0.069
 3.50 1.50 -4.494 -4.485 -4.469 -4.442 -4.405  8.61511 13.85956 -9.81361   0.086
 3.50 1.75 -4.400 -4.392 -4.377 -4.349 -4.313  8.79400 14.10973 -9.56347   0.106
 3.50 2.00 -4.295 -4.287 -4.272 -4.246 -4.210  8.96666 14.36002 -9.31318   0.129
 3.50 2.25 -4.179 -4.172 -4.158 -4.133 -4.099  9.13303 14.61047 -9.06271   0.156
 3.50 2.50 -4.055 -4.048 -4.035 -4.012 -3.981  9.29710 14.86118 -8.81192   0.188
 3.50 2.75 -3.924 -3.917 -3.906 -3.885 -3.857  9.45940 15.11259 -8.56055   0.227
 3.50 3.00 -3.787 -3.781 -3.771 -3.753 -3.728  9.62170 15.36493 -8.30830   0.274
 3.50 3.20 -3.673 -3.668 -3.659 -3.643 -3.620  9.75444 15.56795 -8.10522   0.319
 3.50 3.40 -3.557 -3.553 -3.545 -3.530 -3.510  9.89006 15.77244 -7.90064   0.373
 3.50 3.60 -3.439 -3.435 -3.428 -3.415 -3.398 10.02996 15.97896 -7.69408   0.438
 3.50 3.80 -3.319 -3.316 -3.310 -3.300 -3.285 10.17593 16.18846 -7.48463   0.519
 3.50 4.00 -3.201 -3.198 -3.193 -3.184 -3.172 10.32716 16.40071 -7.27246   0.617
 3.50 4.20 -3.087 -3.084 -3.080 -3.073 -3.061 10.48577 16.61739 -7.05580   0.740
 3.50 4.40 -2.977 -2.975 -2.972 -2.965 -2.955 10.64791 16.83596 -6.83723   0.892
 3.50 4.60 -2.874 -2.873 -2.870 -2.864 -2.855 10.81414 17.05671 -6.61648   1.080
 3.50 4.80 -2.779 -2.777 -2.775 -2.770 -2.761 10.98184 17.27820 -6.39498   1.310
 3.50 5.00 -2.690 -2.689 -2.686 -2.681 -2.674 11.14953 17.49969 -6.17347   1.589
 3.50 5.20 -2.609 -2.607 -2.605 -2.601 -2.594 11.31508 17.71904 -5.95404   1.923
 3.50 5.40 -2.533 -2.532 -2.530 -2.526 -2.519 11.47851 17.93672 -5.73627   2.321
 3.50 5.60 -2.462 -2.461 -2.459 -2.455 -2.449 11.63887 18.15228 -5.52070   2.792
 3.50 5.80 -2.396 -2.395 -2.394 -2.390 -2.384 11.79472 18.36545 -5.30762   3.341
 3.50 6.00 -2.334 -2.333 -2.331 -2.328 -2.322 11.94655 18.57657 -5.09658   3.979
 3.50 6.25 -2.261 -2.260 -2.258 -2.255 -2.250 12.12966 18.83759 -4.83556   4.912
 3.50 6.50 -2.192 -2.191 -2.190 -2.187 -2.181 12.30557 19.09621 -4.57692   6.014
 3.50 6.75 -2.127 -2.126 -2.125 -2.122 -2.117 12.47350 19.35281 -4.32034   7.297
 3.50 7.00 -2.064 -2.063 -2.062 -2.059 -2.054 12.63498 19.60788 -4.06530   8.789
 3.50 7.25 -2.001 -2.001 -1.999 -1.996 -1.992 12.79048 19.86170 -3.81151  10.512
 3.50 7.50 -1.938 -1.938 -1.936 -1.933 -1.929 12.94156 20.11461 -3.55862  12.509
 3.50 7.75 -1.874 -1.873 -1.871 -1.868 -1.864 13.08946 20.36690 -3.30633  14.831
 3.50 8.00 -1.807 -1.806 -1.805 -1.802 -1.798 13.23376 20.61847 -3.05473  17.512
 3.52-2.00 -4.737 -4.735 -4.733 -4.727 -4.720  5.51428 10.33945-13.33376   0.002
 3.52-1.50 -4.766 -4.764 -4.760 -4.751 -4.741  5.94905 10.83942-12.83387   0.004
 3.52-1.00 -4.771 -4.767 -4.761 -4.750 -4.737  6.41979 11.33945-12.33376   0.007
 3.52-0.50 -4.758 -4.753 -4.745 -4.731 -4.713  6.90612 11.83942-11.83387   0.012
 3.52 0.00 -4.726 -4.721 -4.711 -4.692 -4.670  7.39270 12.33945-11.33376   0.021
 3.52 0.50 -4.665 -4.659 -4.646 -4.624 -4.597  7.86635 12.83942-10.83387   0.035
 3.52 1.00 -4.554 -4.546 -4.532 -4.507 -4.475  8.31576 13.33945-10.33367   0.059
 3.52 1.25 -4.474 -4.466 -4.451 -4.426 -4.392  8.52970 13.58947-10.08362   0.076
 3.52 1.50 -4.378 -4.370 -4.355 -4.328 -4.293  8.73608 13.83948 -9.83357   0.096
 3.52 1.75 -4.266 -4.258 -4.244 -4.217 -4.183  8.93442 14.08954 -9.58353   0.121
 3.52 2.00 -4.143 -4.135 -4.121 -4.095 -4.062  9.12483 14.33965 -9.33348   0.151
 3.52 2.25 -4.010 -4.003 -3.990 -3.966 -3.934  9.30667 14.58986 -9.08331   0.186
 3.52 2.50 -3.872 -3.866 -3.853 -3.832 -3.802  9.48173 14.84023 -8.83298   0.228
 3.52 2.75 -3.731 -3.725 -3.714 -3.694 -3.668  9.64994 15.09091 -8.58233   0.276
 3.52 3.00 -3.587 -3.582 -3.573 -3.555 -3.532  9.81498 15.34203 -8.33124   0.334
 3.52 3.20 -3.472 -3.467 -3.459 -3.443 -3.422  9.94481 15.54346 -8.12982   0.388
 3.52 3.40 -3.355 -3.351 -3.344 -3.331 -3.312 10.07465 15.74564 -7.92762   0.450
 3.52 3.60 -3.239 -3.235 -3.229 -3.217 -3.201 10.20530 15.94888 -7.72434   0.523
 3.52 3.80 -3.122 -3.119 -3.114 -3.104 -3.090 10.33856 16.15406 -7.51911   0.610
 3.52 4.00 -3.006 -3.003 -2.999 -2.990 -2.978 10.47422 16.36116 -7.31194   0.714
 3.52 4.20 -2.892 -2.890 -2.886 -2.879 -2.868 10.61592 16.57170 -7.10135   0.841
 3.52 4.40 -2.780 -2.779 -2.775 -2.769 -2.760 10.76255 16.78510 -6.88793   0.995
 3.52 4.60 -2.673 -2.672 -2.669 -2.663 -2.655 10.91550 17.00250 -6.67058   1.186
 3.52 4.80 -2.571 -2.570 -2.567 -2.562 -2.555 11.07335 17.22230 -6.45086   1.423
 3.52 5.00 -2.474 -2.473 -2.471 -2.466 -2.460 11.23426 17.44279 -6.23040   1.712
 3.52 5.20 -2.384 -2.383 -2.382 -2.377 -2.371 11.39826 17.66377 -6.00944   2.068
 3.52 5.40 -2.300 -2.299 -2.298 -2.294 -2.288 11.56225 17.88475 -5.78847   2.498
 3.52 5.60 -2.222 -2.221 -2.219 -2.216 -2.210 11.72535 18.10448 -5.56873   3.014
 3.52 5.80 -2.149 -2.148 -2.146 -2.143 -2.138 11.88588 18.32145 -5.35171   3.625
 3.52 6.00 -2.080 -2.079 -2.078 -2.075 -2.070 12.04415 18.53643 -5.13668   4.350
 3.52 6.25 -2.001 -2.000 -1.998 -1.995 -1.990 12.23551 18.80156 -4.87155   5.422
 3.52 6.50 -1.926 -1.926 -1.924 -1.921 -1.916 12.42045 19.06371 -4.60942   6.709
 3.52 6.75 -1.857 -1.856 -1.855 -1.852 -1.847 12.59805 19.32321 -4.34998   8.231
 3.52 7.00 -1.791 -1.791 -1.789 -1.787 -1.782 12.76864 19.58058 -4.09264  10.018
 3.52 7.25 -1.729 -1.728 -1.727 -1.724 -1.720 12.93181 19.83605 -3.83711  12.087
 3.52 7.50 -1.669 -1.668 -1.667 -1.664 -1.660 13.08884 20.09026 -3.58286  14.481
 3.52 7.75 -1.609 -1.608 -1.607 -1.604 -1.600 13.24076 20.34364 -3.32948  17.249
 3.52 8.00 -1.548 -1.548 -1.546 -1.543 -1.539 13.38721 20.59605 -3.07712  20.420
 3.54-2.00 -4.556 -4.555 -4.554 -4.552 -4.549  5.75702 10.31952-13.35369   0.003
 3.54-1.50 -4.645 -4.644 -4.642 -4.638 -4.632  6.09691 10.81941-12.85387   0.005
 3.54-1.00 -4.699 -4.697 -4.694 -4.687 -4.678  6.48530 11.31952-12.35369   0.007
 3.54-0.50 -4.716 -4.713 -4.708 -4.698 -4.686  6.92397 11.81941-11.85387   0.012
 3.54 0.00 -4.696 -4.693 -4.685 -4.672 -4.656  7.39585 12.31952-11.35369   0.020
 3.54 0.50 -4.633 -4.628 -4.618 -4.601 -4.580  7.87846 12.81941-10.85387   0.035
 3.54 1.00 -4.506 -4.499 -4.487 -4.466 -4.439  8.35411 13.31952-10.35369   0.061
 3.54 1.25 -4.414 -4.407 -4.394 -4.371 -4.342  8.58421 13.56950-10.10362   0.079
 3.54 1.50 -4.302 -4.295 -4.281 -4.258 -4.227  8.80814 13.81948 -9.85356   0.102
 3.54 1.75 -4.175 -4.167 -4.154 -4.130 -4.099  9.02459 14.06948 -9.60358   0.131
 3.54 2.00 -4.033 -4.026 -4.013 -3.989 -3.958  9.23350 14.31952 -9.35360   0.167
 3.54 2.25 -3.882 -3.875 -3.863 -3.841 -3.812  9.43435 14.56963 -9.10347   0.211
 3.54 2.50 -3.726 -3.720 -3.708 -3.688 -3.660  9.62716 14.81981 -8.85325   0.263
 3.54 2.75 -3.568 -3.562 -3.552 -3.534 -3.510  9.81127 15.07009 -8.60296   0.325
 3.54 3.00 -3.411 -3.406 -3.397 -3.381 -3.359  9.98829 15.32056 -8.35252   0.399
 3.54 3.20 -3.287 -3.282 -3.275 -3.260 -3.241 10.12447 15.52126 -8.15187   0.467
 3.54 3.40 -3.164 -3.161 -3.154 -3.141 -3.124 10.25827 15.72237 -7.95083   0.544
 3.54 3.60 -3.043 -3.040 -3.034 -3.023 -3.008 10.38937 15.92400 -7.74924   0.633
 3.54 3.80 -2.924 -2.921 -2.916 -2.906 -2.893 10.51955 16.12666 -7.54652   0.735
 3.54 4.00 -2.806 -2.804 -2.799 -2.791 -2.780 10.64972 16.33042 -7.34266   0.854
 3.54 4.20 -2.691 -2.689 -2.685 -2.678 -2.668 10.78181 16.53636 -7.13669   0.994
 3.54 4.40 -2.578 -2.577 -2.574 -2.568 -2.559 10.91601 16.74468 -6.92837   1.160
 3.54 4.60 -2.469 -2.468 -2.465 -2.460 -2.452 11.05390 16.95616 -6.71689   1.359
 3.54 4.80 -2.364 -2.363 -2.361 -2.356 -2.349 11.19722 17.17099 -6.50205   1.603
 3.54 5.00 -2.264 -2.263 -2.261 -2.257 -2.250 11.34498 17.38846 -6.28458   1.901
 3.54 5.20 -2.169 -2.169 -2.167 -2.163 -2.157 11.49908 17.60964 -6.06341   2.270
 3.54 5.40 -2.080 -2.079 -2.078 -2.074 -2.069 11.65553 17.83082 -5.84224   2.718
 3.54 5.60 -1.997 -1.996 -1.994 -1.991 -1.986 11.81455 18.05177 -5.62132   3.264
 3.54 5.80 -1.918 -1.918 -1.916 -1.913 -1.908 11.97436 18.27185 -5.40128   3.923
 3.54 6.00 -1.844 -1.844 -1.842 -1.839 -1.835 12.13418 18.49108 -5.18210   4.715
 3.54 6.25 -1.758 -1.758 -1.756 -1.753 -1.749 12.33007 18.76087 -4.91235   5.908
 3.54 6.50 -1.678 -1.678 -1.676 -1.673 -1.669 12.52205 19.02735 -4.64589   7.370
 3.54 6.75 -1.604 -1.603 -1.602 -1.599 -1.595 12.70738 19.29034 -4.38290   9.123
 3.54 7.00 -1.535 -1.534 -1.533 -1.530 -1.526 12.88627 19.55060 -4.12263  11.210
 3.54 7.25 -1.470 -1.469 -1.468 -1.465 -1.461 13.05767 19.80841 -3.86479  13.655
 3.54 7.50 -1.409 -1.408 -1.407 -1.404 -1.400 13.22220 20.06446 -3.60871  16.503
 3.54 7.75 -1.350 -1.350 -1.348 -1.346 -1.342 13.38012 20.31926 -3.35388  19.793
 3.54 8.00 -1.294 -1.293 -1.292 -1.289 -1.285 13.53135 20.57264 -3.10045  23.557
 3.56-2.00 -4.290 -4.290 -4.289 -4.288 -4.287  6.11760 10.29929-13.37387   0.005
 3.56-1.50 -4.424 -4.423 -4.422 -4.421 -4.419  6.40226 10.79934-12.87387   0.006
 3.56-1.00 -4.533 -4.532 -4.530 -4.527 -4.523  6.71029 11.29929-12.37376   0.009
 3.56-0.50 -4.607 -4.606 -4.603 -4.598 -4.590  7.05576 11.79934-11.87387   0.013
 3.56 0.00 -4.635 -4.632 -4.628 -4.620 -4.610  7.45194 12.29929-11.37376   0.021
 3.56 0.50 -4.600 -4.596 -4.590 -4.579 -4.564  7.89603 12.79934-10.87387   0.035
 3.56 1.00 -4.482 -4.477 -4.468 -4.453 -4.434  8.36736 13.29929-10.37376   0.060
 3.56 1.25 -4.386 -4.381 -4.371 -4.354 -4.333  8.60420 13.54930-10.12382   0.079
 3.56 1.50 -4.266 -4.260 -4.249 -4.230 -4.206  8.84105 13.79934 -9.87387   0.104
 3.56 1.75 -4.125 -4.119 -4.108 -4.089 -4.063  9.07195 14.04942 -9.62383   0.136
 3.56 2.00 -3.968 -3.962 -3.950 -3.930 -3.904  9.29754 14.29951 -9.37376   0.176
 3.56 2.25 -3.801 -3.795 -3.784 -3.764 -3.739  9.51562 14.54953 -9.12366   0.226
 3.56 2.50 -3.627 -3.621 -3.611 -3.592 -3.568  9.72632 14.79955 -8.87354   0.288
 3.56 2.75 -3.451 -3.446 -3.437 -3.420 -3.398  9.92895 15.04968 -8.62341   0.364
 3.56 3.00 -3.277 -3.272 -3.264 -3.249 -3.229 10.12353 15.29994 -8.37325   0.455
 3.56 3.20 -3.140 -3.136 -3.128 -3.115 -3.097 10.27274 15.50027 -8.17289   0.540
 3.56 3.40 -3.006 -3.002 -2.995 -2.983 -2.967 10.41730 15.70080 -7.97230   0.638
 3.56 3.60 -2.875 -2.871 -2.866 -2.855 -2.840 10.55678 15.90159 -7.77147   0.749
 3.56 3.80 -2.747 -2.744 -2.739 -2.730 -2.717 10.69276 16.10295 -7.57014   0.876
 3.56 4.00 -2.622 -2.620 -2.616 -2.608 -2.596 10.82620 16.30492 -7.36825   1.022
 3.56 4.20 -2.501 -2.499 -2.496 -2.489 -2.478 10.95700 16.50805 -7.16515   1.188
 3.56 4.40 -2.384 -2.382 -2.379 -2.373 -2.364 11.08780 16.71269 -6.96051   1.382
 3.56 4.60 -2.270 -2.268 -2.266 -2.260 -2.252 11.21930 16.91941 -6.75377   1.608
 3.56 4.80 -2.160 -2.159 -2.157 -2.152 -2.144 11.35299 17.12914 -6.54402   1.875
 3.56 5.00 -2.056 -2.054 -2.052 -2.048 -2.042 11.48869 17.34163 -6.33152   2.192
 3.56 5.20 -1.957 -1.956 -1.954 -1.950 -1.944 11.62977 17.55850 -6.11468   2.578
 3.56 5.40 -1.864 -1.863 -1.861 -1.858 -1.852 11.77458 17.77719 -5.89599   3.046
 3.56 5.60 -1.777 -1.776 -1.775 -1.771 -1.766 11.92411 17.99796 -5.67520   3.618
 3.56 5.80 -1.696 -1.695 -1.694 -1.691 -1.686 12.07661 18.21943 -5.45369   4.312
 3.56 6.00 -1.620 -1.619 -1.617 -1.614 -1.610 12.23045 18.44091 -5.23218   5.148
 3.56 6.25 -1.530 -1.529 -1.528 -1.525 -1.521 12.42409 18.71479 -4.95834   6.433
 3.56 6.50 -1.446 -1.446 -1.444 -1.441 -1.437 12.61773 18.98601 -4.68719   8.040
 3.56 6.75 -1.368 -1.367 -1.366 -1.363 -1.359 12.80708 19.25319 -4.42000   9.998
 3.56 7.00 -1.295 -1.294 -1.293 -1.290 -1.286 12.99224 19.51719 -4.15602  12.374
 3.56 7.25 -1.226 -1.226 -1.224 -1.222 -1.218 13.17060 19.77811 -3.89523  15.195
 3.56 7.50 -1.163 -1.162 -1.161 -1.158 -1.154 13.34242 20.03663 -3.63676  18.520
 3.56 7.75 -1.104 -1.103 -1.102 -1.099 -1.095 13.50696 20.29333 -3.38001  22.383
 3.56 8.00 -1.048 -1.047 -1.046 -1.043 -1.039 13.66445 20.54802 -3.12517  26.832
 3.58-2.00 -3.981 -3.981 -3.980 -3.980 -3.978  6.51228 10.27921-13.39383   0.007
 3.58-1.50 -4.143 -4.142 -4.142 -4.141 -4.139  6.77583 10.77931-12.89381   0.009
 3.58-1.00 -4.286 -4.285 -4.284 -4.283 -4.281  7.04844 11.27944-12.39383   0.013
 3.58-0.50 -4.404 -4.403 -4.402 -4.400 -4.396  7.33626 11.77931-11.89381   0.018
 3.58 0.00 -4.486 -4.484 -4.482 -4.478 -4.472  7.65089 12.27944-11.39383   0.026
 3.58 0.50 -4.507 -4.505 -4.502 -4.495 -4.486  8.00647 12.77931-10.89381   0.039
 3.58 1.00 -4.435 -4.432 -4.427 -4.418 -4.405  8.41380 13.27944-10.39373   0.062
 3.58 1.25 -4.355 -4.352 -4.345 -4.334 -4.320  8.63562 13.52941-10.14377   0.080
 3.58 1.50 -4.244 -4.240 -4.232 -4.220 -4.204  8.86332 13.77938 -9.89381   0.104
 3.58 1.75 -4.104 -4.099 -4.091 -4.078 -4.060  9.09626 14.02941 -9.64377   0.136
 3.58 2.00 -3.940 -3.935 -3.927 -3.912 -3.893  9.32920 14.27944 -9.39373   0.178
 3.58 2.25 -3.762 -3.757 -3.748 -3.733 -3.714  9.55884 14.52945 -9.14377   0.232
 3.58 2.50 -3.573 -3.568 -3.560 -3.545 -3.525  9.78483 14.77945 -8.89381   0.301
 3.58 2.75 -3.382 -3.378 -3.370 -3.356 -3.337 10.00335 15.02953 -8.64371   0.387
 3.58 3.00 -3.191 -3.187 -3.179 -3.166 -3.148 10.21484 15.27967 -8.39351   0.494
 3.58 3.20 -3.040 -3.036 -3.029 -3.017 -3.001 10.37822 15.47983 -8.19330   0.596
 3.58 3.40 -2.892 -2.889 -2.882 -2.871 -2.855 10.53651 15.68008 -7.99298   0.715
 3.58 3.60 -2.748 -2.744 -2.739 -2.729 -2.714 10.68931 15.88047 -7.79256   0.853
 3.58 3.80 -2.607 -2.604 -2.599 -2.590 -2.577 10.83698 16.08116 -7.59189   1.011
 3.58 4.00 -2.471 -2.469 -2.464 -2.456 -2.444 10.98000 16.28217 -7.39094   1.192
 3.58 4.20 -2.340 -2.338 -2.334 -2.327 -2.316 11.11789 16.48381 -7.18927   1.397
 3.58 4.40 -2.213 -2.211 -2.208 -2.201 -2.192 11.25334 16.68635 -6.98669   1.633
 3.58 4.60 -2.091 -2.089 -2.086 -2.080 -2.072 11.38602 16.89010 -6.78296   1.903
 3.58 4.80 -1.973 -1.972 -1.969 -1.964 -1.957 11.51778 17.09593 -6.57723   2.214
 3.58 5.00 -1.861 -1.860 -1.857 -1.853 -1.846 11.64953 17.30384 -6.36947   2.577
 3.58 5.20 -1.754 -1.753 -1.751 -1.747 -1.741 11.78325 17.51533 -6.15795   3.006
 3.58 5.40 -1.655 -1.654 -1.652 -1.648 -1.643 11.91887 17.72963 -5.94359   3.514
 3.58 5.60 -1.562 -1.561 -1.560 -1.556 -1.551 12.05761 17.94800 -5.72517   4.123
 3.58 5.80 -1.477 -1.476 -1.475 -1.472 -1.467 12.20011 18.16842 -5.50473   4.859
 3.58 6.00 -1.398 -1.398 -1.396 -1.393 -1.389 12.34537 18.38899 -5.28416   5.743
 3.58 6.25 -1.308 -1.307 -1.305 -1.303 -1.298 12.53176 18.66480 -5.00838   7.117
 3.58 6.50 -1.223 -1.222 -1.221 -1.218 -1.214 12.71850 18.94062 -4.73259   8.824
 3.58 6.75 -1.144 -1.143 -1.142 -1.139 -1.135 12.90544 19.21199 -4.46116  10.943
 3.58 7.00 -1.069 -1.068 -1.067 -1.064 -1.060 13.09237 19.48015 -4.19294  13.570
 3.58 7.25 -0.998 -0.998 -0.996 -0.993 -0.989 13.27425 19.74454 -3.92861  16.731
 3.58 7.50 -0.932 -0.932 -0.930 -0.927 -0.923 13.45148 20.00604 -3.66716  20.518
 3.58 7.75 -0.872 -0.871 -0.869 -0.866 -0.862 13.62156 20.26523 -3.40797  24.957
 3.58 8.00 -0.815 -0.814 -0.813 -0.810 -0.805 13.78533 20.52192 -3.15126  30.136
 3.60-2.00 -3.651 -3.651 -3.650 -3.649 -3.647  6.90779 10.25912-13.41398   0.011
 3.60-1.50 -3.832 -3.832 -3.831 -3.830 -3.828  7.16376 10.75929-12.91400   0.014
 3.60-1.00 -3.997 -3.997 -3.996 -3.995 -3.993  7.42308 11.25936-12.41386   0.019
 3.60-0.50 -4.142 -4.142 -4.141 -4.139 -4.137  7.68815 11.75937-11.91400   0.026
 3.60 0.00 -4.256 -4.255 -4.254 -4.252 -4.248  7.96379 12.25936-11.41375   0.036
 3.60 0.50 -4.320 -4.319 -4.317 -4.313 -4.307  8.25768 12.75937-10.91364   0.051
 3.60 1.00 -4.302 -4.300 -4.297 -4.291 -4.283  8.58252 13.25935-10.41375   0.074
 3.60 1.25 -4.251 -4.249 -4.245 -4.239 -4.229  8.76146 13.50936-10.16370   0.091
 3.60 1.50 -4.169 -4.166 -4.162 -4.154 -4.144  8.95216 13.75937 -9.91364   0.113
 3.60 1.75 -4.053 -4.050 -4.045 -4.037 -4.025  9.15695 14.00936 -9.66370   0.143
 3.60 2.00 -3.907 -3.904 -3.899 -3.889 -3.876  9.37125 14.25936 -9.41375   0.183
 3.60 2.25 -3.736 -3.733 -3.727 -3.717 -3.703  9.59616 14.50939 -9.16370   0.237
 3.60 2.50 -3.548 -3.544 -3.538 -3.528 -3.513  9.82125 14.75944 -8.91364   0.307
 3.60 2.75 -3.350 -3.346 -3.340 -3.329 -3.314 10.04643 15.00951 -8.66364   0.398
 3.60 3.00 -3.147 -3.143 -3.137 -3.126 -3.111 10.27161 15.25959 -8.41364   0.516
 3.60 3.20 -2.985 -2.981 -2.975 -2.965 -2.950 10.44615 15.45967 -8.21355   0.631
 3.60 3.40 -2.824 -2.821 -2.815 -2.805 -2.791 10.61668 15.65976 -8.01339   0.767
 3.60 3.60 -2.667 -2.664 -2.658 -2.648 -2.635 10.78271 15.85992 -7.81317   0.929
 3.60 3.80 -2.513 -2.510 -2.505 -2.496 -2.483 10.94351 16.06027 -7.61281   1.118
 3.60 4.00 -2.363 -2.360 -2.356 -2.347 -2.335 11.09934 16.26079 -7.41229   1.337
 3.60 4.20 -2.218 -2.216 -2.212 -2.204 -2.193 11.24937 16.46167 -7.21138   1.589
 3.60 4.40 -2.079 -2.077 -2.073 -2.066 -2.056 11.39490 16.66306 -7.00995   1.879
 3.60 4.60 -1.944 -1.943 -1.939 -1.933 -1.924 11.53542 16.86510 -6.80789   2.209
 3.60 4.80 -1.815 -1.814 -1.811 -1.806 -1.797 11.67264 17.06840 -6.60465   2.587
 3.60 5.00 -1.692 -1.691 -1.689 -1.684 -1.676 11.80767 17.27300 -6.40012   3.022
 3.60 5.20 -1.575 -1.574 -1.572 -1.568 -1.561 11.94055 17.48015 -6.19301   3.522
 3.60 5.40 -1.465 -1.464 -1.463 -1.459 -1.453 12.07344 17.68989 -5.98329   4.104
 3.60 5.60 -1.363 -1.363 -1.361 -1.358 -1.352 12.20713 17.90315 -5.77003   4.787
 3.60 5.80 -1.270 -1.269 -1.268 -1.265 -1.260 12.34288 18.11968 -5.55348   5.597
 3.60 6.00 -1.185 -1.184 -1.183 -1.180 -1.175 12.48030 18.33846 -5.33470   6.556
 3.60 6.25 -1.089 -1.089 -1.087 -1.084 -1.080 12.65632 18.61528 -5.05795   8.028
 3.60 6.50 -1.003 -1.003 -1.001 -0.998 -0.994 12.83487 18.89210 -4.78120   9.859
 3.60 6.75 -0.925 -0.924 -0.922 -0.919 -0.915 13.01607 19.16688 -4.50642  12.146
 3.60 7.00 -0.851 -0.850 -0.849 -0.846 -0.841 13.19728 19.43949 -4.23374  14.963
 3.60 7.25 -0.781 -0.781 -0.779 -0.776 -0.772 13.37730 19.70779 -3.96536  18.409
 3.60 7.50 -0.715 -0.715 -0.713 -0.710 -0.705 13.55570 19.97281 -3.70028  22.608
 3.60 7.75 -0.654 -0.653 -0.651 -0.648 -0.643 13.72844 20.23487 -3.43819  27.583
 3.60 8.00 -0.596 -0.596 -0.594 -0.591 -0.586 13.89686 20.49388 -3.17921  33.485
 3.62-2.00 -3.310 -3.309 -3.308 -3.307 -3.305  7.29403 10.23880-13.43427   0.016
 3.62-1.50 -3.507 -3.506 -3.505 -3.504 -3.501  7.54704 10.73902-12.93405   0.022
 3.62-1.00 -3.689 -3.689 -3.688 -3.686 -3.684  7.80133 11.23930-12.43392   0.029
 3.62-0.50 -3.852 -3.852 -3.851 -3.849 -3.846  8.05767 11.73926-11.93405   0.039
 3.62 0.00 -3.985 -3.985 -3.983 -3.981 -3.978  8.31827 12.23930-11.43380   0.053
 3.62 0.50 -4.070 -4.069 -4.067 -4.065 -4.061  8.58614 12.73934-10.93367   0.072
 3.62 1.00 -4.080 -4.079 -4.076 -4.073 -4.067  8.86694 13.23930-10.43380   0.100
 3.62 1.25 -4.048 -4.047 -4.044 -4.040 -4.034  9.01503 13.48932-10.18374   0.119
 3.62 1.50 -3.990 -3.989 -3.986 -3.981 -3.973  9.16997 13.73934 -9.93367   0.142
 3.62 1.75 -3.904 -3.902 -3.899 -3.893 -3.885  9.33419 13.98932 -9.68374   0.171
 3.62 2.00 -3.791 -3.789 -3.786 -3.779 -3.770  9.50853 14.23930 -9.43380   0.209
 3.62 2.25 -3.653 -3.650 -3.646 -3.639 -3.629  9.69581 14.48930 -9.18374   0.259
 3.62 2.50 -3.491 -3.489 -3.485 -3.477 -3.466  9.89404 14.73934 -8.93367   0.326
 3.62 2.75 -3.311 -3.308 -3.303 -3.295 -3.284 10.10488 14.98944 -8.68368   0.416
 3.62 3.00 -3.116 -3.113 -3.108 -3.100 -3.087 10.32056 15.23955 -8.43368   0.533
 3.62 3.20 -2.954 -2.951 -2.946 -2.937 -2.924 10.49623 15.43956 -8.23368   0.653
 3.62 3.40 -2.788 -2.785 -2.780 -2.771 -2.759 10.67191 15.63957 -8.03368   0.799
 3.62 3.60 -2.623 -2.620 -2.615 -2.606 -2.593 10.84616 15.83961 -7.83360   0.977
 3.62 3.80 -2.459 -2.456 -2.451 -2.442 -2.430 11.01668 16.03978 -7.63335   1.188
 3.62 4.00 -2.297 -2.294 -2.290 -2.281 -2.269 11.18412 16.24005 -7.43297   1.441
 3.62 4.20 -2.140 -2.137 -2.133 -2.125 -2.113 11.34637 16.44052 -7.23253   1.737
 3.62 4.40 -1.986 -1.984 -1.980 -1.973 -1.962 11.50397 16.64129 -7.03186   2.082
 3.62 4.60 -1.838 -1.836 -1.833 -1.826 -1.816 11.65641 16.84243 -6.83081   2.481
 3.62 4.80 -1.696 -1.694 -1.691 -1.685 -1.676 11.80396 17.04431 -6.62892   2.941
 3.62 5.00 -1.559 -1.558 -1.555 -1.550 -1.542 11.94729 17.24699 -6.42620   3.468
 3.62 5.20 -1.430 -1.429 -1.426 -1.422 -1.414 12.08582 17.45119 -6.22202   4.068
 3.62 5.40 -1.307 -1.306 -1.304 -1.300 -1.293 12.22256 17.65728 -6.01595   4.761
 3.62 5.60 -1.193 -1.192 -1.190 -1.186 -1.180 12.35737 17.86593 -5.80728   5.560
 3.62 5.80 -1.087 -1.087 -1.085 -1.082 -1.076 12.49160 18.07788 -5.59527   6.490
 3.62 6.00 -0.991 -0.990 -0.989 -0.986 -0.980 12.62583 18.29270 -5.38039   7.574
 3.62 6.25 -0.885 -0.884 -0.882 -0.879 -0.874 12.79564 18.56697 -5.10610   9.209
 3.62 6.50 -0.792 -0.791 -0.789 -0.786 -0.781 12.96699 18.84249 -4.83062  11.217
 3.62 6.75 -0.710 -0.709 -0.708 -0.704 -0.699 13.14071 19.11882 -4.55436  13.702
 3.62 7.00 -0.637 -0.636 -0.634 -0.631 -0.626 13.31492 19.39515 -4.27811  16.746
 3.62 7.25 -0.569 -0.568 -0.567 -0.563 -0.558 13.48945 19.66728 -4.00592  20.472
 3.62 7.50 -0.506 -0.505 -0.503 -0.500 -0.495 13.66398 19.93626 -3.73684  25.026
 3.62 7.75 -0.446 -0.445 -0.443 -0.440 -0.435 13.83524 20.20165 -3.47143  30.481
 3.62 8.00 -0.390 -0.389 -0.387 -0.383 -0.378 14.00432 20.46359 -3.20950  37.035
 3.64-2.00 -2.963 -2.962 -2.961 -2.960 -2.957  7.66408 10.21827-13.45494   0.024
 3.64-1.50 -3.173 -3.173 -3.172 -3.170 -3.167  7.91614 10.71867-12.95429   0.033
 3.64-1.00 -3.371 -3.370 -3.369 -3.367 -3.364  8.16850 11.21906-12.45407   0.044
 3.64-0.50 -3.549 -3.548 -3.547 -3.545 -3.541  8.42177 11.71917-11.95390   0.059
 3.64 0.00 -3.697 -3.696 -3.694 -3.692 -3.688  8.67651 12.21932-11.45383   0.078
 3.64 0.50 -3.794 -3.793 -3.791 -3.788 -3.784  8.93409 12.71933-10.95390   0.106
 3.64 1.00 -3.814 -3.813 -3.811 -3.808 -3.803  9.19700 13.21932-10.45383   0.143
 3.64 1.25 -3.790 -3.789 -3.787 -3.783 -3.777  9.33163 13.46933-10.20386   0.167
 3.64 1.50 -3.742 -3.741 -3.738 -3.734 -3.728  9.46923 13.71933 -9.95390   0.195
 3.64 1.75 -3.671 -3.669 -3.667 -3.662 -3.655  9.61098 13.96933 -9.70380   0.230
 3.64 2.00 -3.578 -3.577 -3.574 -3.568 -3.561  9.75785 14.21932 -9.45370   0.273
 3.64 2.25 -3.467 -3.465 -3.461 -3.456 -3.447  9.91173 14.46937 -9.20380   0.326
 3.64 2.50 -3.338 -3.335 -3.332 -3.326 -3.317 10.07372 14.71941 -8.95390   0.392
 3.64 2.75 -3.192 -3.189 -3.185 -3.178 -3.169 10.24646 14.96937 -8.70380   0.478
 3.64 3.00 -3.030 -3.027 -3.023 -3.016 -3.005 10.42959 15.21932 -8.45371   0.591
 3.64 3.20 -2.889 -2.886 -2.881 -2.874 -2.863 10.58560 15.41937 -8.25363   0.707
 3.64 3.40 -2.739 -2.736 -2.731 -2.723 -2.712 10.74643 15.61945 -8.05355   0.851
 3.64 3.60 -2.582 -2.579 -2.574 -2.566 -2.554 10.91311 15.81955 -7.85347   1.030
 3.64 3.80 -2.420 -2.417 -2.413 -2.404 -2.392 11.08201 16.01968 -7.65340   1.251
 3.64 4.00 -2.256 -2.254 -2.249 -2.240 -2.228 11.25091 16.21985 -7.45333   1.520
 3.64 4.20 -2.092 -2.090 -2.085 -2.077 -2.065 11.41847 16.42010 -7.25307   1.843
 3.64 4.40 -1.930 -1.928 -1.923 -1.915 -1.904 11.58442 16.62049 -7.05263   2.232
 3.64 4.60 -1.771 -1.769 -1.765 -1.757 -1.747 11.74732 16.82110 -6.85199   2.692
 3.64 4.80 -1.616 -1.614 -1.610 -1.604 -1.594 11.90530 17.02218 -6.65098   3.229
 3.64 5.00 -1.466 -1.464 -1.461 -1.455 -1.446 12.05919 17.22375 -6.44953   3.855
 3.64 5.20 -1.322 -1.321 -1.318 -1.313 -1.305 12.20776 17.42617 -6.24714   4.574
 3.64 5.40 -1.185 -1.184 -1.182 -1.177 -1.170 12.35257 17.62980 -6.04349   5.405
 3.64 5.60 -1.057 -1.056 -1.054 -1.050 -1.043 12.49319 17.83515 -5.83811   6.354
 3.64 5.80 -0.938 -0.937 -0.935 -0.931 -0.925 12.63125 18.04321 -5.63004   7.449
 3.64 6.00 -0.828 -0.827 -0.825 -0.821 -0.815 12.76775 18.25382 -5.41942   8.716
 3.64 6.25 -0.705 -0.704 -0.703 -0.699 -0.693 12.93663 18.52258 -5.15065  10.587
 3.64 6.50 -0.599 -0.598 -0.596 -0.593 -0.587 13.10551 18.79511 -4.87811  12.859
 3.64 6.75 -0.508 -0.507 -0.505 -0.501 -0.496 13.27486 19.07191 -4.60131  15.627
 3.64 7.00 -0.429 -0.428 -0.427 -0.423 -0.417 13.44420 19.34869 -4.32450  18.990
 3.64 7.25 -0.361 -0.360 -0.358 -0.355 -0.349 13.61324 19.62368 -4.04951  23.070
 3.64 7.50 -0.300 -0.299 -0.297 -0.293 -0.287 13.78183 19.89669 -3.77650  28.013
 3.64 7.75 -0.243 -0.242 -0.240 -0.236 -0.230 13.94870 20.16557 -3.50759  33.945
 3.64 8.00 -0.190 -0.189 -0.187 -0.183 -0.177 14.11428 20.43104 -3.24207  41.071
 3.66-2.00 -2.616 -2.616 -2.615 -2.612 -2.609  8.01953 10.19645-13.47664   0.036
 3.66-1.50 -2.837 -2.836 -2.835 -2.833 -2.829  8.27161 10.69775-12.97551   0.048
 3.66-1.00 -3.047 -3.046 -3.044 -3.042 -3.038  8.52362 11.19838-12.47470   0.064
 3.66-0.50 -3.238 -3.238 -3.236 -3.233 -3.229  8.77554 11.69880-11.97429   0.086
 3.66 0.00 -3.400 -3.399 -3.397 -3.394 -3.390  9.02816 12.19921-11.47405   0.115
 3.66 0.50 -3.508 -3.507 -3.505 -3.502 -3.497  9.28172 12.69914-10.97388   0.154
 3.66 1.00 -3.536 -3.535 -3.532 -3.528 -3.523  9.53732 13.19921-10.47392   0.207
 3.66 1.25 -3.514 -3.513 -3.511 -3.506 -3.500  9.66648 13.44926-10.22390   0.240
 3.66 1.50 -3.470 -3.468 -3.466 -3.461 -3.454  9.79692 13.69932 -9.97388   0.279
 3.66 1.75 -3.404 -3.402 -3.400 -3.395 -3.387  9.92919 13.94940 -9.72383   0.325
 3.66 2.00 -3.320 -3.318 -3.315 -3.310 -3.302 10.06371 14.19948 -9.47379   0.379
 3.66 2.25 -3.220 -3.218 -3.215 -3.209 -3.201 10.20116 14.44940 -9.22383   0.444
 3.66 2.50 -3.108 -3.106 -3.102 -3.096 -3.087 10.34242 14.69932 -8.97388   0.522
 3.66 2.75 -2.984 -2.982 -2.978 -2.971 -2.962 10.48911 14.94940 -8.72383   0.618
 3.66 3.00 -2.850 -2.848 -2.843 -2.836 -2.826 10.64217 15.19948 -8.47379   0.737
 3.66 3.20 -2.734 -2.732 -2.727 -2.720 -2.709 10.77068 15.39945 -8.27382   0.854
 3.66 3.40 -2.611 -2.608 -2.604 -2.596 -2.584 10.90490 15.59942 -8.07386   0.997
 3.66 3.60 -2.479 -2.477 -2.472 -2.464 -2.452 11.04583 15.79948 -7.87382   1.173
 3.66 3.80 -2.340 -2.337 -2.332 -2.323 -2.311 11.19322 15.99962 -7.67369   1.390
 3.66 4.00 -2.193 -2.190 -2.185 -2.177 -2.164 11.34596 16.19976 -7.47353   1.657
 3.66 4.20 -2.039 -2.036 -2.032 -2.023 -2.011 11.50561 16.39989 -7.27337   1.991
 3.66 4.40 -1.881 -1.879 -1.874 -1.866 -1.854 11.66605 16.60003 -7.07317   2.395
 3.66 4.60 -1.721 -1.719 -1.715 -1.707 -1.695 11.82721 16.80031 -6.87286   2.884
 3.66 4.80 -1.561 -1.559 -1.556 -1.548 -1.537 11.98852 17.00097 -6.67225   3.472
 3.66 5.00 -1.403 -1.402 -1.398 -1.391 -1.381 12.14983 17.20194 -6.47134   4.181
 3.66 5.20 -1.249 -1.248 -1.245 -1.239 -1.229 12.30651 17.40335 -6.26987   5.008
 3.66 5.40 -1.100 -1.098 -1.096 -1.091 -1.082 12.45993 17.60547 -6.06760   5.975
 3.66 5.60 -0.958 -0.957 -0.954 -0.950 -0.942 12.60934 17.80862 -5.86433   7.097
 3.66 5.80 -0.824 -0.823 -0.821 -0.817 -0.810 12.75480 18.01368 -5.65927   8.391
 3.66 6.00 -0.699 -0.698 -0.696 -0.692 -0.685 12.89708 18.22063 -5.45235   9.884
 3.66 6.25 -0.559 -0.558 -0.556 -0.552 -0.545 13.07077 18.48410 -5.18901  12.071
 3.66 6.50 -0.434 -0.433 -0.431 -0.427 -0.421 13.24180 18.75205 -4.92118  14.698
 3.66 6.75 -0.328 -0.327 -0.325 -0.321 -0.315 13.41112 19.02622 -4.64692  17.863
 3.66 7.00 -0.238 -0.237 -0.235 -0.231 -0.225 13.57875 19.30168 -4.37141  21.667
 3.66 7.25 -0.163 -0.162 -0.160 -0.156 -0.150 13.74507 19.57800 -4.09507  26.240
 3.66 7.50 -0.099 -0.098 -0.096 -0.092 -0.085 13.90966 19.85431 -3.81873  31.714
 3.66 7.75 -0.044 -0.043 -0.041 -0.036 -0.030 14.07209 20.12646 -3.54663  38.234
 3.66 8.00  0.005  0.006  0.008  0.013  0.020 14.23249 20.39585 -3.27737  45.986
 3.68-2.00 -2.274 -2.273 -2.272 -2.269 -2.265  8.35660 10.17290-13.50031   0.052
 3.68-1.50 -2.502 -2.501 -2.500 -2.497 -2.493  8.61013 10.67569-12.99740   0.069
 3.68-1.00 -2.721 -2.720 -2.719 -2.715 -2.711  8.86243 11.17725-12.49580   0.093
 3.68-0.50 -2.924 -2.923 -2.921 -2.918 -2.913  9.11428 11.67825-11.99482   0.124
 3.68 0.00 -3.099 -3.098 -3.096 -3.092 -3.086  9.36605 12.17869-11.49444   0.166
 3.68 0.50 -3.220 -3.218 -3.216 -3.212 -3.206  9.61805 12.67897-10.99396   0.222
 3.68 1.00 -3.256 -3.255 -3.252 -3.247 -3.240  9.87087 13.17927-10.49390   0.296
 3.68 1.25 -3.237 -3.236 -3.233 -3.228 -3.220  9.99776 13.42926-10.24393   0.343
 3.68 1.50 -3.195 -3.193 -3.190 -3.185 -3.177 10.12516 13.67925 -9.99396   0.397
 3.68 1.75 -3.132 -3.130 -3.126 -3.121 -3.112 10.25344 13.92925 -9.74386   0.460
 3.68 2.00 -3.051 -3.049 -3.045 -3.039 -3.030 10.38274 14.17927 -9.49377   0.534
 3.68 2.25 -2.957 -2.954 -2.950 -2.944 -2.934 10.51333 14.42929 -9.24386   0.621
 3.68 2.50 -2.852 -2.849 -2.845 -2.838 -2.828 10.64562 14.67934 -8.99396   0.723
 3.68 2.75 -2.738 -2.735 -2.731 -2.723 -2.713 10.78030 14.92945 -8.74387   0.845
 3.68 3.00 -2.617 -2.614 -2.610 -2.602 -2.590 10.91798 15.17955 -8.49377   0.990
 3.68 3.20 -2.515 -2.512 -2.507 -2.499 -2.487 11.03103 15.37950 -8.29367   1.127
 3.68 3.40 -2.408 -2.405 -2.400 -2.392 -2.379 11.14725 15.57945 -8.09358   1.288
 3.68 3.60 -2.296 -2.293 -2.288 -2.279 -2.267 11.26706 15.77944 -7.89355   1.479
 3.68 3.80 -2.178 -2.176 -2.170 -2.161 -2.148 11.39157 15.97948 -7.69359   1.707
 3.68 4.00 -2.055 -2.052 -2.047 -2.038 -2.025 11.52075 16.17955 -7.49363   1.981
 3.68 4.20 -1.924 -1.922 -1.917 -1.907 -1.894 11.65613 16.37964 -7.29363   2.315
 3.68 4.40 -1.787 -1.785 -1.780 -1.771 -1.758 11.79658 16.57979 -7.09358   2.721
 3.68 4.60 -1.644 -1.641 -1.637 -1.628 -1.615 11.94313 16.78002 -6.89340   3.221
 3.68 4.80 -1.495 -1.493 -1.488 -1.480 -1.468 12.09368 16.98042 -6.69295   3.830
 3.68 5.00 -1.342 -1.340 -1.337 -1.329 -1.318 12.24650 17.18099 -6.49228   4.567
 3.68 5.20 -1.188 -1.187 -1.183 -1.176 -1.166 12.40133 17.38178 -6.29140   5.458
 3.68 5.40 -1.035 -1.033 -1.030 -1.024 -1.015 12.55616 17.58300 -6.09009   6.524
 3.68 5.60 -0.885 -0.884 -0.881 -0.876 -0.867 12.70993 17.78486 -5.88817   7.787
 3.68 5.80 -0.741 -0.740 -0.738 -0.733 -0.724 12.86100 17.98805 -5.68501   9.266
 3.68 6.00 -0.603 -0.602 -0.600 -0.595 -0.588 13.00988 18.19257 -5.48057  10.998
 3.68 6.25 -0.445 -0.444 -0.442 -0.438 -0.430 13.19068 18.45162 -5.22159  13.543
 3.68 6.50 -0.302 -0.301 -0.299 -0.295 -0.287 13.36736 18.71467 -4.95861  16.599
 3.68 6.75 -0.178 -0.177 -0.175 -0.170 -0.163 13.54038 18.98387 -4.68928  20.259
 3.68 7.00 -0.071 -0.070 -0.068 -0.064 -0.056 13.71012 19.25672 -4.41635  24.633
 3.68 7.25  0.015  0.016  0.018  0.023  0.030 13.87715 19.53351 -4.13966  29.855
 3.68 7.50  0.087  0.088  0.091  0.095  0.103 14.04100 19.81030 -3.86296  36.050
 3.68 7.75  0.146  0.147  0.149  0.154  0.162 14.20128 20.08493 -3.58833  43.355
 3.68 8.00  0.196  0.197  0.199  0.205  0.212 14.35813 20.35813 -3.31507  51.936
 3.70-2.00 -1.939 -1.938 -1.936 -1.933 -1.929  8.67560 10.14489-13.52827   0.073
 3.70-1.50 -2.172 -2.171 -2.169 -2.166 -2.161  8.93258 10.65118-13.02200   0.098
 3.70-1.00 -2.397 -2.396 -2.394 -2.391 -2.385  9.18667 11.15473-12.51841   0.132
 3.70-0.50 -2.609 -2.608 -2.605 -2.602 -2.596  9.43933 11.65677-12.01642   0.176
 3.70 0.00 -2.794 -2.793 -2.791 -2.786 -2.780  9.69117 12.15806-11.51527   0.236
 3.70 0.50 -2.928 -2.927 -2.924 -2.919 -2.912  9.94280 12.65849-11.01466   0.315
 3.70 1.00 -2.977 -2.975 -2.972 -2.966 -2.958 10.19451 13.15897-10.51428   0.420
 3.70 1.25 -2.962 -2.960 -2.957 -2.951 -2.942 10.32057 13.40901-10.26418   0.486
 3.70 1.50 -2.923 -2.921 -2.917 -2.911 -2.902 10.44685 13.65906-10.01408   0.562
 3.70 1.75 -2.862 -2.860 -2.856 -2.849 -2.840 10.57348 13.90916 -9.76397   0.650
 3.70 2.00 -2.784 -2.782 -2.778 -2.770 -2.760 10.70053 14.15927 -9.51385   0.753
 3.70 2.25 -2.693 -2.690 -2.686 -2.678 -2.667 10.82813 14.40926 -9.26388   0.872
 3.70 2.50 -2.591 -2.588 -2.584 -2.576 -2.564 10.95646 14.65925 -9.01390   1.011
 3.70 2.75 -2.482 -2.479 -2.474 -2.466 -2.454 11.08589 14.90925 -8.76388   1.173
 3.70 3.00 -2.367 -2.364 -2.359 -2.350 -2.338 11.21669 15.15927 -8.51385   1.364
 3.70 3.20 -2.271 -2.268 -2.263 -2.254 -2.241 11.32265 15.35929 -8.31384   1.541
 3.70 3.40 -2.173 -2.170 -2.164 -2.155 -2.141 11.43013 15.55932 -8.11382   1.744
 3.70 3.60 -2.071 -2.068 -2.062 -2.052 -2.039 11.53931 15.75939 -7.91380   1.977
 3.70 3.80 -1.965 -1.962 -1.957 -1.947 -1.933 11.65093 15.95948 -7.71376   2.248
 3.70 4.00 -1.856 -1.853 -1.848 -1.838 -1.823 11.76507 16.15957 -7.51371   2.564
 3.70 4.20 -1.743 -1.740 -1.734 -1.724 -1.710 11.88262 16.35959 -7.31366   2.936
 3.70 4.40 -1.624 -1.622 -1.616 -1.606 -1.592 12.00391 16.55962 -7.11359   3.376
 3.70 4.60 -1.501 -1.498 -1.493 -1.484 -1.470 12.12946 16.75968 -6.91346   3.901
 3.70 4.80 -1.372 -1.369 -1.365 -1.355 -1.342 12.25977 16.95987 -6.71322   4.532
 3.70 5.00 -1.237 -1.235 -1.231 -1.223 -1.210 12.39445 17.16017 -6.51286   5.292
 3.70 5.20 -1.098 -1.096 -1.092 -1.084 -1.072 12.53455 17.36067 -6.31238   6.218
 3.70 5.40 -0.954 -0.953 -0.949 -0.942 -0.932 12.67750 17.56148 -6.11164   7.331
 3.70 5.60 -0.810 -0.808 -0.805 -0.799 -0.789 12.82382 17.76270 -5.91051   8.677
 3.70 5.80 -0.666 -0.665 -0.662 -0.656 -0.647 12.97137 17.96473 -5.70854  10.284
 3.70 6.00 -0.524 -0.523 -0.521 -0.515 -0.506 13.11893 18.16761 -5.50571  12.188
 3.70 6.25 -0.356 -0.355 -0.353 -0.348 -0.339 13.30206 18.42345 -5.24988  15.048
 3.70 6.50 -0.199 -0.198 -0.196 -0.191 -0.182 13.48359 18.68233 -4.99097  18.545
 3.70 6.75 -0.057 -0.056 -0.054 -0.049 -0.040 13.66101 18.94662 -4.72669  22.748
 3.70 7.00  0.066  0.067  0.070  0.075  0.083 13.83487 19.21537 -4.45792  27.788
 3.70 7.25  0.170  0.171  0.173  0.179  0.187 14.00498 19.49016 -4.18292  33.797
 3.70 7.50  0.255  0.257  0.259  0.264  0.273 14.17085 19.76574 -3.90728  40.905
 3.70 7.75  0.323  0.324  0.327  0.332  0.341 14.33172 20.04158 -3.63144  49.231
 3.70 8.00  0.377  0.379  0.381  0.387  0.396 14.48785 20.31785 -3.35527  58.934
 3.73-2.00 -1.456 -1.455 -1.453 -1.450 -1.445  9.10619 10.08636-13.58687   0.116
 3.73-1.50 -1.689 -1.688 -1.686 -1.683 -1.677  9.37712 10.60444-13.06875   0.158
 3.73-1.00 -1.918 -1.917 -1.915 -1.911 -1.905  9.63909 11.11528-12.55799   0.214
 3.73-0.50 -2.136 -2.135 -2.133 -2.129 -2.122  9.89586 11.62128-12.05188   0.288
 3.73 0.00 -2.332 -2.331 -2.328 -2.324 -2.317 10.14983 12.12483-11.54837   0.386
 3.73 0.50 -2.483 -2.481 -2.479 -2.473 -2.465 10.40243 12.62685-11.04634   0.516
 3.73 1.00 -2.552 -2.550 -2.547 -2.541 -2.531 10.65427 13.12808-10.54516   0.690
 3.73 1.25 -2.547 -2.545 -2.542 -2.535 -2.524 10.78001 13.37835-10.29484   0.797
 3.73 1.50 -2.516 -2.514 -2.510 -2.503 -2.492 10.90574 13.62859-10.04460   0.921
 3.73 1.75 -2.462 -2.460 -2.455 -2.448 -2.436 11.03156 13.87883 -9.79440   1.065
 3.73 2.00 -2.389 -2.387 -2.382 -2.374 -2.362 11.15746 14.12905 -9.54424   1.231
 3.73 2.25 -2.302 -2.300 -2.295 -2.286 -2.274 11.28344 14.37908 -9.29412   1.423
 3.73 2.50 -2.205 -2.203 -2.198 -2.189 -2.176 11.40959 14.62910 -9.04402   1.645
 3.73 2.75 -2.101 -2.098 -2.093 -2.084 -2.070 11.53619 14.87924 -8.79398   1.903
 3.73 3.00 -1.991 -1.988 -1.983 -1.973 -1.959 11.66323 15.12937 -8.54394   2.203
 3.73 3.20 -1.901 -1.898 -1.892 -1.882 -1.868 11.76524 15.32934 -8.34389   2.478
 3.73 3.40 -1.808 -1.805 -1.799 -1.789 -1.774 11.86771 15.52932 -8.14385   2.788
 3.73 3.60 -1.713 -1.710 -1.704 -1.693 -1.678 11.97073 15.72931 -7.94382   3.139
 3.73 3.80 -1.616 -1.612 -1.607 -1.596 -1.580 12.07456 15.92933 -7.74380   3.538
 3.73 4.00 -1.517 -1.514 -1.508 -1.497 -1.481 12.17927 16.12937 -7.54379   3.991
 3.73 4.20 -1.415 -1.412 -1.406 -1.395 -1.379 12.28521 16.32942 -7.34376   4.508
 3.73 4.40 -1.311 -1.308 -1.302 -1.292 -1.276 12.39261 16.52948 -7.14371   5.101
 3.73 4.60 -1.204 -1.201 -1.196 -1.185 -1.170 12.50157 16.72954 -6.94364   5.783
 3.73 4.80 -1.094 -1.091 -1.086 -1.076 -1.061 12.61267 16.92961 -6.74351   6.573
 3.73 5.00 -0.981 -0.979 -0.974 -0.965 -0.950 12.72599 17.12969 -6.54333   7.489
 3.73 5.20 -0.864 -0.862 -0.857 -0.849 -0.835 12.84231 17.32994 -6.34309   8.562
 3.73 5.40 -0.743 -0.741 -0.738 -0.730 -0.717 12.96164 17.53036 -6.14272   9.822
 3.73 5.60 -0.620 -0.618 -0.615 -0.608 -0.596 13.08428 17.73099 -5.94216  11.312
 3.73 5.80 -0.494 -0.493 -0.490 -0.484 -0.473 13.21031 17.93204 -5.74116  13.080
 3.73 6.00 -0.367 -0.365 -0.363 -0.357 -0.347 13.33945 18.13354 -5.53970  15.178
 3.73 6.25 -0.210 -0.209 -0.206 -0.200 -0.190 13.50578 18.38653 -5.28670  18.380
 3.73 6.50 -0.054 -0.053 -0.050 -0.044 -0.034 13.67495 18.64128 -5.03189  22.331
 3.73 6.75  0.095  0.096  0.099  0.105  0.114 13.84683 18.89954 -4.77359  27.215
 3.73 7.00  0.236  0.237  0.240  0.245  0.255 14.01870 19.16167 -4.51145  33.168
 3.73 7.25  0.360  0.362  0.364  0.370  0.380 14.18914 19.42982 -4.24343  40.360
 3.73 7.50  0.468  0.469  0.472  0.478  0.487 14.35775 19.70191 -3.97143  49.011
 3.73 7.75  0.554  0.555  0.558  0.564  0.574 14.52100 19.97695 -3.69637  59.147
 3.73 8.00  0.623  0.624  0.627  0.633  0.643 14.68006 20.25527 -3.41794  71.034
 3.76-2.00 -1.016 -1.015 -1.014 -1.010 -1.005  9.44963  9.98945-13.68382   0.166
 3.76-1.50 -1.234 -1.233 -1.231 -1.227 -1.222  9.75906 10.53173-13.14140   0.238
 3.76-1.00 -1.455 -1.454 -1.452 -1.448 -1.442 10.04336 11.05956-12.61368   0.330
 3.76-0.50 -1.670 -1.669 -1.667 -1.663 -1.656 10.31260 11.57634-12.09675   0.449
 3.76 0.00 -1.867 -1.866 -1.864 -1.859 -1.852 10.57357 12.08636-11.58687   0.607
 3.76 0.50 -2.026 -2.024 -2.021 -2.016 -2.008 10.82988 12.59196-11.08118   0.815
 3.76 1.00 -2.112 -2.110 -2.107 -2.101 -2.091 11.08350 13.09517-10.57790   1.092
 3.76 1.25 -2.119 -2.117 -2.113 -2.106 -2.096 11.20979 13.34624-10.32689   1.263
 3.76 1.50 -2.099 -2.097 -2.093 -2.086 -2.075 11.33586 13.59704-10.07613   1.460
 3.76 1.75 -2.055 -2.053 -2.049 -2.041 -2.030 11.46178 13.84753 -9.82556   1.688
 3.76 2.00 -1.992 -1.989 -1.985 -1.977 -1.965 11.58760 14.09795 -9.57512   1.951
 3.76 2.25 -1.913 -1.910 -1.906 -1.897 -1.885 11.71332 14.34835 -9.32479   2.255
 3.76 2.50 -1.822 -1.820 -1.815 -1.807 -1.794 11.83904 14.59868 -9.07453   2.606
 3.76 2.75 -1.724 -1.721 -1.717 -1.707 -1.694 11.96480 14.84887 -8.82431   3.012
 3.76 3.00 -1.620 -1.617 -1.612 -1.603 -1.589 12.09061 15.09899 -8.57414   3.482
 3.76 3.20 -1.534 -1.531 -1.526 -1.516 -1.502 12.19145 15.29904 -8.37409   3.911
 3.76 3.40 -1.446 -1.443 -1.437 -1.427 -1.413 12.29245 15.49909 -8.17404   4.393
 3.76 3.60 -1.356 -1.353 -1.347 -1.337 -1.322 12.39363 15.69916 -7.97398   4.935
 3.76 3.80 -1.264 -1.261 -1.255 -1.245 -1.229 12.49508 15.89925 -7.77390   5.546
 3.76 4.00 -1.171 -1.168 -1.162 -1.151 -1.135 12.59682 16.09934 -7.57381   6.235
 3.76 4.20 -1.075 -1.072 -1.067 -1.056 -1.040 12.69896 16.29934 -7.37379   7.013
 3.76 4.40 -0.979 -0.976 -0.970 -0.959 -0.943 12.80163 16.49934 -7.17377   7.893
 3.76 4.60 -0.880 -0.877 -0.871 -0.860 -0.844 12.90488 16.69941 -6.97375   8.890
 3.76 4.80 -0.779 -0.776 -0.771 -0.760 -0.744 13.00899 16.89954 -6.77371  10.021
 3.76 5.00 -0.676 -0.673 -0.668 -0.658 -0.643 13.11394 17.09968 -6.57365  11.307
 3.76 5.20 -0.570 -0.568 -0.563 -0.554 -0.539 13.21992 17.29981 -6.37352  12.775
 3.76 5.40 -0.462 -0.460 -0.456 -0.447 -0.434 13.32718 17.49993 -6.17329  14.455
 3.76 5.60 -0.352 -0.351 -0.347 -0.339 -0.326 13.43591 17.70015 -5.97297  16.384
 3.76 5.80 -0.241 -0.239 -0.236 -0.229 -0.217 13.54652 17.90065 -5.77244  18.609
 3.76 6.00 -0.128 -0.126 -0.124 -0.117 -0.106 13.65897 18.10140 -5.57170  21.180
 3.76 6.25  0.009  0.011  0.013  0.020  0.030 13.80263 18.35296 -5.32018  24.989
 3.76 6.50  0.148  0.150  0.152  0.159  0.169 13.94959 18.60552 -5.06768  29.595
 3.76 6.75  0.286  0.288  0.290  0.297  0.307 14.10021 18.86011 -4.81311  35.199
 3.76 7.00  0.421  0.422  0.425  0.432  0.442 14.25358 19.11727 -4.55596  41.997
 3.76 7.25  0.548  0.549  0.552  0.559  0.569 14.41024 19.37886 -4.29434  50.299
 3.76 7.50  0.664  0.666  0.668  0.675  0.685 14.56691 19.64483 -4.02835  60.243
 3.76 7.75  0.763  0.764  0.767  0.774  0.784 14.72323 19.91597 -3.75723  72.122
 3.76 8.00  0.845  0.846  0.849  0.856  0.867 14.87933 20.19201 -3.48122  86.319
 3.79-2.00 -0.691 -0.690 -0.689 -0.685 -0.679  9.64856  9.86249-13.81051   0.202
 3.79-1.50 -0.841 -0.840 -0.839 -0.835 -0.828 10.03623 10.41913-13.25407   0.316
 3.79-1.00 -1.027 -1.026 -1.024 -1.020 -1.014 10.37365 10.97183-12.70137   0.466
 3.79-0.50 -1.223 -1.222 -1.220 -1.216 -1.209 10.67514 11.51014-12.16298   0.659
 3.79 0.00 -1.407 -1.406 -1.404 -1.400 -1.393 10.95468 12.03463-11.63846   0.909
 3.79 0.50 -1.561 -1.559 -1.557 -1.552 -1.545 11.22141 12.54949-11.12372   1.236
 3.79 1.00 -1.654 -1.653 -1.650 -1.645 -1.636 11.48101 13.05805-10.61511   1.667
 3.79 1.25 -1.670 -1.669 -1.665 -1.659 -1.650 11.60905 13.31077-10.36232   1.932
 3.79 1.50 -1.662 -1.661 -1.657 -1.651 -1.641 11.73640 13.56289-10.11019   2.237
 3.79 1.75 -1.632 -1.630 -1.626 -1.620 -1.609 11.86325 13.81464 -9.85854   2.589
 3.79 2.00 -1.581 -1.579 -1.575 -1.568 -1.557 11.98972 14.06595 -9.60730   2.994
 3.79 2.25 -1.514 -1.512 -1.508 -1.500 -1.489 12.11585 14.31669 -9.35649   3.462
 3.79 2.50 -1.434 -1.432 -1.428 -1.420 -1.408 12.24180 14.56726 -9.10585   4.002
 3.79 2.75 -1.345 -1.343 -1.339 -1.330 -1.318 12.36756 14.81778 -8.85528   4.626
 3.79 3.00 -1.250 -1.247 -1.243 -1.234 -1.222 12.49332 15.06819 -8.60485   5.347
 3.79 3.20 -1.169 -1.167 -1.162 -1.154 -1.140 12.59393 15.26842 -8.40468   6.003
 3.79 3.40 -1.087 -1.085 -1.080 -1.071 -1.057 12.69454 15.46860 -8.20453   6.740
 3.79 3.60 -1.003 -1.000 -0.995 -0.986 -0.971 12.79517 15.66873 -8.00440   7.568
 3.79 3.80 -0.917 -0.914 -0.909 -0.899 -0.884 12.89587 15.86883 -7.80427   8.498
 3.79 4.00 -0.829 -0.826 -0.821 -0.811 -0.796 12.99664 16.06893 -7.60415   9.544
 3.79 4.20 -0.740 -0.737 -0.731 -0.721 -0.705 13.09754 16.26902 -7.40408  10.720
 3.79 4.40 -0.649 -0.646 -0.640 -0.630 -0.614 13.19860 16.46910 -7.20401  12.043
 3.79 4.60 -0.556 -0.553 -0.548 -0.537 -0.521 13.29992 16.66917 -7.00394  13.533
 3.79 4.80 -0.461 -0.458 -0.453 -0.443 -0.427 13.40162 16.86924 -6.80387  15.214
 3.79 5.00 -0.365 -0.362 -0.357 -0.347 -0.332 13.50365 17.06930 -6.60380  17.109
 3.79 5.20 -0.266 -0.264 -0.259 -0.249 -0.234 13.60605 17.26940 -6.40371  19.249
 3.79 5.40 -0.165 -0.163 -0.159 -0.150 -0.136 13.70894 17.46953 -6.20360  21.670
 3.79 5.60 -0.063 -0.061 -0.057 -0.049 -0.036 13.81239 17.66971 -6.00343  24.413
 3.79 5.80  0.040  0.041  0.045  0.052  0.065 13.91660 17.87000 -5.80315  27.527
 3.79 6.00  0.145  0.146  0.149  0.156  0.167 14.02160 18.07041 -5.60276  31.066
 3.79 6.25  0.273  0.274  0.277  0.283  0.294 14.15435 18.32117 -5.35198  36.193
 3.79 6.50  0.401  0.402  0.405  0.411  0.422 14.28870 18.57241 -5.10073  42.242
 3.79 6.75  0.529  0.530  0.533  0.539  0.550 14.42482 18.82483 -4.84829  49.408
 3.79 7.00  0.655  0.656  0.659  0.665  0.676 14.56253 19.07882 -4.59431  57.897
 3.79 7.25  0.777  0.778  0.781  0.787  0.798 14.70203 19.33563 -4.33754  67.988
 3.79 7.50  0.892  0.893  0.895  0.902  0.912 14.84236 19.59583 -4.07738  79.911
 3.79 7.75  0.993  0.995  0.997  1.004  1.014 14.98314 19.86138 -3.81181  93.970
 3.79 8.00  1.081  1.082  1.085  1.091  1.102 15.12451 20.13162 -3.54151 110.571
 3.82-2.00 -0.557 -0.556 -0.554 -0.550 -0.543  9.69819  9.77561-13.89757   0.207
 3.82-1.50 -0.601 -0.600 -0.598 -0.594 -0.586 10.16227 10.30341-13.36967   0.353
 3.82-1.00 -0.692 -0.691 -0.689 -0.684 -0.677 10.58365 10.85248-12.82074   0.573
 3.82-0.50 -0.825 -0.824 -0.822 -0.818 -0.811 10.95168 11.40976-12.26344   0.876
 3.82 0.00 -0.972 -0.971 -0.969 -0.965 -0.958 11.27416 11.95770-11.71557   1.269
 3.82 0.50 -1.101 -1.100 -1.098 -1.094 -1.088 11.56632 12.49052-11.18257   1.777
 3.82 1.00 -1.187 -1.186 -1.184 -1.179 -1.172 11.84036 13.01115-10.66214   2.436
 3.82 1.25 -1.206 -1.205 -1.202 -1.197 -1.189 11.97299 13.26790-10.40530   2.838
 3.82 1.50 -1.207 -1.205 -1.202 -1.197 -1.188 12.10380 13.52310-10.15003   3.299
 3.82 1.75 -1.188 -1.186 -1.183 -1.177 -1.168 12.23328 13.77712 -9.89605   3.829
 3.82 2.00 -1.151 -1.149 -1.146 -1.140 -1.131 12.36173 14.03020 -9.64302   4.439
 3.82 2.25 -1.098 -1.096 -1.093 -1.087 -1.077 12.48935 14.28243 -9.39073   5.141
 3.82 2.50 -1.032 -1.031 -1.027 -1.021 -1.010 12.61637 14.53415 -9.13900   5.951
 3.82 2.75 -0.956 -0.954 -0.951 -0.944 -0.933 12.74290 14.78557 -8.88773   6.884
 3.82 3.00 -0.872 -0.870 -0.867 -0.859 -0.848 12.86911 15.03663 -8.63677   7.961
 3.82 3.20 -0.801 -0.799 -0.795 -0.787 -0.776 12.96986 15.23709 -8.43614   8.941
 3.82 3.40 -0.726 -0.724 -0.720 -0.712 -0.700 13.07057 15.43750 -8.23564  10.040
 3.82 3.60 -0.649 -0.647 -0.643 -0.635 -0.622 13.17123 15.63790 -8.03525  11.274
 3.82 3.80 -0.570 -0.568 -0.564 -0.555 -0.542 13.27189 15.83828 -7.83494  12.659
 3.82 4.00 -0.489 -0.487 -0.483 -0.474 -0.460 13.37254 16.03862 -7.63470  14.214
 3.82 4.20 -0.407 -0.404 -0.400 -0.390 -0.376 13.47320 16.23870 -7.43453  15.960
 3.82 4.40 -0.322 -0.320 -0.315 -0.306 -0.291 13.57385 16.43879 -7.23438  17.921
 3.82 4.60 -0.236 -0.234 -0.229 -0.219 -0.204 13.67457 16.63886 -7.03423  20.124
 3.82 4.80 -0.148 -0.146 -0.141 -0.131 -0.116 13.77545 16.83894 -6.83408  22.602
 3.82 5.00 -0.058 -0.056 -0.051 -0.042 -0.027 13.87645 17.03902 -6.63395  25.388
 3.82 5.20  0.034  0.036  0.040  0.049  0.064 13.97760 17.23913 -6.43390  28.523
 3.82 5.40  0.128  0.130  0.134  0.143  0.157 14.07894 17.43925 -6.23386  32.054
 3.82 5.60  0.224  0.226  0.229  0.238  0.251 14.18053 17.63940 -6.03378  36.032
 3.82 5.80  0.322  0.324  0.327  0.334  0.347 14.28245 17.83959 -5.83362  40.519
 3.82 6.00  0.421  0.423  0.426  0.432  0.444 14.38471 18.03981 -5.63339  45.582
 3.82 6.25  0.543  0.544  0.547  0.553  0.565 14.51314 18.29021 -5.38297  52.846
 3.82 6.50  0.666  0.667  0.669  0.676  0.686 14.64227 18.54083 -5.13230  61.316
 3.82 6.75  0.788  0.789  0.791  0.797  0.808 14.77230 18.79207 -4.88103  71.214
 3.82 7.00  0.909  0.910  0.913  0.919  0.929 14.90293 19.04415 -4.62893  82.770
 3.82 7.25  1.028  1.029  1.032  1.038  1.048 15.03424 19.29782 -4.37529  96.286
 3.82 7.50  1.143  1.145  1.147  1.153  1.163 15.16554 19.55364 -4.11953 112.008
 3.82 7.75  1.250  1.251  1.253  1.259  1.269 15.29642 19.81372 -3.85948 130.214
 3.82 8.00  1.344  1.345  1.348  1.353  1.363 15.42700 20.07737 -3.59585 151.314
 3.85-2.00 -0.529 -0.528 -0.526 -0.521 -0.513  9.68458  9.73143-13.94158   0.197
 3.85-1.50 -0.527 -0.525 -0.523 -0.518 -0.509 10.17696 10.23805-13.43510   0.347
 3.85-1.00 -0.530 -0.529 -0.526 -0.521 -0.512 10.65543 10.75610-12.91722   0.601
 3.85-0.50 -0.554 -0.553 -0.550 -0.546 -0.538 11.10209 11.29403-12.37903   1.006
 3.85 0.00 -0.610 -0.609 -0.607 -0.603 -0.596 11.49859 11.84948-11.82362   1.588
 3.85 0.50 -0.680 -0.679 -0.677 -0.673 -0.667 11.84361 12.40398-11.26922   2.362
 3.85 1.00 -0.732 -0.731 -0.729 -0.725 -0.719 12.15014 12.94488-10.72816   3.361
 3.85 1.25 -0.744 -0.743 -0.741 -0.737 -0.730 12.29362 13.20967-10.46342   3.965
 3.85 1.50 -0.744 -0.742 -0.740 -0.736 -0.729 12.43265 13.47144-10.20170   4.653
 3.85 1.75 -0.730 -0.729 -0.726 -0.721 -0.714 12.56811 13.73054 -9.94256   5.438
 3.85 2.00 -0.702 -0.701 -0.699 -0.694 -0.686 12.70105 13.98758 -9.68550   6.338
 3.85 2.25 -0.663 -0.661 -0.659 -0.653 -0.645 12.83204 14.24289 -9.43027   7.369
 3.85 2.50 -0.611 -0.610 -0.607 -0.602 -0.593 12.96161 14.49693 -9.17627   8.555
 3.85 2.75 -0.550 -0.549 -0.546 -0.540 -0.531 13.09007 14.74988 -8.92317   9.919
 3.85 3.00 -0.481 -0.479 -0.476 -0.470 -0.461 13.21775 15.00217 -8.67081  11.490
 3.85 3.20 -0.420 -0.419 -0.416 -0.410 -0.400 13.31942 15.20366 -8.46939  12.917
 3.85 3.40 -0.356 -0.355 -0.351 -0.345 -0.335 13.42083 15.40490 -8.26823  14.516
 3.85 3.60 -0.289 -0.287 -0.284 -0.277 -0.266 13.52199 15.60590 -8.06731  16.309
 3.85 3.80 -0.219 -0.217 -0.214 -0.206 -0.195 13.62299 15.80671 -7.86655  18.320
 3.85 4.00 -0.147 -0.145 -0.141 -0.133 -0.122 13.72387 16.00732 -7.66595  20.576
 3.85 4.20 -0.072 -0.070 -0.066 -0.058 -0.046 13.82460 16.20770 -7.46552  23.107
 3.85 4.40  0.003  0.005  0.010  0.018  0.030 13.92534 16.40800 -7.26516  25.948
 3.85 4.60  0.082  0.084  0.088  0.097  0.110 14.02609 16.60822 -7.06485  29.138
 3.85 4.80  0.163  0.165  0.169  0.177  0.191 14.12686 16.80841 -6.86457  32.721
 3.85 5.00  0.245  0.247  0.251  0.260  0.273 14.22763 17.00860 -6.66434  36.744
 3.85 5.20  0.330  0.332  0.336  0.345  0.358 14.32840 17.20879 -6.46425  41.265
 3.85 5.40  0.418  0.419  0.423  0.431  0.444 14.42918 17.40898 -6.26416  46.347
 3.85 5.60  0.507  0.509  0.512  0.520  0.533 14.53008 17.60915 -6.06406  52.060
 3.85 5.80  0.599  0.600  0.603  0.611  0.623 14.63123 17.80930 -5.86391  58.490
 3.85 6.00  0.692  0.694  0.696  0.703  0.714 14.73256 18.00945 -5.66374  65.725
 3.85 6.25  0.808  0.809  0.812  0.818  0.829 14.85948 18.25969 -5.41350  76.064
 3.85 6.50  0.926  0.927  0.929  0.935  0.946 14.98673 18.51001 -5.16317  88.063
 3.85 6.75  1.043  1.044  1.047  1.053  1.063 15.11438 18.76060 -4.91256 102.009
 3.85 7.00  1.161  1.162  1.165  1.171  1.180 15.24229 19.01157 -4.66154 118.197
 3.85 7.25  1.279  1.280  1.283  1.288  1.298 15.37051 19.26340 -4.40973 136.995
 3.85 7.50  1.395  1.396  1.399  1.404  1.414 15.49872 19.51640 -4.15677 158.782
 3.85 7.75  1.506  1.507  1.510  1.515  1.524 15.62606 19.77203 -3.90116 183.852
 3.85 8.00  1.610  1.611  1.613  1.618  1.627 15.75282 20.02979 -3.64340 212.739
 3.88-2.00 -0.528 -0.527 -0.525 -0.521 -0.514  9.65753  9.69880-13.97429   0.184
 3.88-1.50 -0.517 -0.516 -0.513 -0.508 -0.499 10.15594 10.20003-13.47314   0.327
 3.88-1.00 -0.495 -0.493 -0.490 -0.484 -0.474 10.65138 10.70424-12.96900   0.578
 3.88-0.50 -0.456 -0.454 -0.451 -0.445 -0.435 11.13767 11.21590-12.45718   1.012
 3.88 0.00 -0.406 -0.405 -0.403 -0.398 -0.389 11.60097 11.74445-11.92885   1.725
 3.88 0.50 -0.365 -0.364 -0.362 -0.358 -0.351 12.02119 12.29381-11.37945   2.799
 3.88 1.00 -0.336 -0.336 -0.334 -0.330 -0.324 12.38810 12.85095-10.82218   4.271
 3.88 1.25 -0.322 -0.321 -0.320 -0.316 -0.309 12.55348 13.12617-10.54694   5.166
 3.88 1.50 -0.305 -0.304 -0.302 -0.298 -0.292 12.70986 13.39846-10.27466   6.185
 3.88 1.75 -0.282 -0.281 -0.279 -0.275 -0.269 12.85864 13.66650-10.00669   7.340
 3.88 2.00 -0.254 -0.253 -0.251 -0.247 -0.240 13.00173 13.93115 -9.74208   8.654
 3.88 2.25 -0.219 -0.218 -0.216 -0.212 -0.205 13.14012 14.19247 -9.48069  10.150
 3.88 2.50 -0.177 -0.176 -0.174 -0.170 -0.163 13.27531 14.45133 -9.22178  11.860
 3.88 2.75 -0.129 -0.128 -0.125 -0.121 -0.113 13.40812 14.70813 -8.96496  13.819
 3.88 3.00 -0.073 -0.072 -0.070 -0.065 -0.057 13.53908 14.96336 -8.70974  16.067
 3.88 3.20 -0.024 -0.023 -0.021 -0.016 -0.008 13.64272 15.16657 -8.50658  18.103
 3.88 3.40  0.027  0.028  0.031  0.036  0.045 13.74569 15.36918 -8.30401  20.382
 3.88 3.60  0.083  0.084  0.087  0.093  0.102 13.84801 15.57124 -8.10197  22.932
 3.88 3.80  0.142  0.144  0.147  0.153  0.162 13.94993 15.77291 -7.90030  25.789
 3.88 4.00  0.204  0.206  0.209  0.215  0.225 14.05154 15.97424 -7.69897  28.991
 3.88 4.20  0.269  0.271  0.274  0.280  0.291 14.15292 16.17523 -7.49793  32.580
 3.88 4.40  0.336  0.338  0.341  0.348  0.358 14.25415 16.37605 -7.29709  36.606
 3.88 4.60  0.406  0.407  0.411  0.418  0.429 14.35522 16.57673 -7.09645  41.122
 3.88 4.80  0.477  0.479  0.482  0.490  0.501 14.45621 16.77731 -6.89593  46.190
 3.88 5.00  0.551  0.553  0.556  0.564  0.575 14.55715 16.97777 -6.69551  51.881
 3.88 5.20  0.628  0.629  0.633  0.640  0.652 14.65803 17.17806 -6.49514  58.270
 3.88 5.40  0.707  0.708  0.712  0.719  0.730 14.75892 17.37831 -6.29483  65.446
 3.88 5.60  0.788  0.790  0.793  0.800  0.811 14.85982 17.57854 -6.09460  73.508
 3.88 5.80  0.872  0.874  0.877  0.883  0.894 14.96080 17.77876 -5.89440  82.571
 3.88 6.00  0.959  0.960  0.962  0.968  0.979 15.06183 17.97896 -5.69422  92.759
 3.88 6.25  1.068  1.069  1.071  1.077  1.087 15.18828 18.22912 -5.44402 107.297
 3.88 6.50  1.179  1.180  1.183  1.188  1.197 15.31492 18.47929 -5.19382 124.140
 3.88 6.75  1.291  1.292  1.295  1.300  1.309 15.44191 18.72964 -4.94346 143.673
 3.88 7.00  1.406  1.406  1.409  1.414  1.423 15.56902 18.98019 -4.69293 166.309
 3.88 7.25  1.521  1.522  1.524  1.529  1.538 15.69625 19.23101 -4.44215 192.544
 3.88 7.50  1.637  1.638  1.640  1.645  1.653 15.82347 19.48230 -4.19091 222.917
 3.88 7.75  1.751  1.752  1.754  1.759  1.767 15.95008 19.73488 -3.93831 257.894
 3.88 8.00  1.862  1.863  1.865  1.869  1.877 16.07628 19.98847 -3.68466 298.215
 3.91-2.00 -0.532 -0.531 -0.529 -0.526 -0.521  9.62808  9.66829-14.00489   0.172
 3.91-1.50 -0.521 -0.520 -0.518 -0.514 -0.506 10.12775 10.16850-13.50459   0.306
 3.91-1.00 -0.499 -0.497 -0.494 -0.488 -0.478 10.62675 10.66950-13.00366   0.543
 3.91-0.50 -0.450 -0.448 -0.445 -0.438 -0.426 11.12353 11.17231-12.50086   0.962
 3.91 0.00 -0.360 -0.358 -0.355 -0.348 -0.337 11.61426 11.68052-11.99268   1.693
 3.91 0.50 -0.228 -0.226 -0.224 -0.218 -0.209 12.08778 12.20194-11.47134   2.920
 3.91 1.00 -0.079 -0.078 -0.076 -0.071 -0.064 12.52556 12.74437-10.92885   4.833
 3.91 1.25 -0.010 -0.009 -0.008 -0.003  0.002 12.72479 13.02270-10.65049   6.079
 3.91 1.50  0.051  0.052  0.054  0.058  0.064 12.91132 13.30103-10.37212   7.535
 3.91 1.75  0.105  0.106  0.107  0.111  0.117 13.08456 13.57804-10.09514   9.198
 3.91 2.00  0.154  0.155  0.157  0.161  0.167 13.24748 13.85339 -9.81987  11.096
 3.91 2.25  0.200  0.201  0.203  0.206  0.213 13.40122 14.12401 -9.54919  13.245
 3.91 2.50  0.245  0.246  0.248  0.252  0.258 13.54827 14.39111 -9.28200  15.688
 3.91 2.75  0.290  0.291  0.293  0.297  0.303 13.68987 14.65465 -9.01842  18.466
 3.91 3.00  0.338  0.339  0.341  0.345  0.352 13.82750 14.91535 -8.75771  21.637
 3.91 3.20  0.378  0.379  0.381  0.386  0.393 13.93519 15.12199 -8.55108  24.495
 3.91 3.40  0.421  0.422  0.424  0.429  0.436 14.04149 15.32746 -8.34564  27.685
 3.91 3.60  0.467  0.468  0.470  0.475  0.482 14.14652 15.53182 -8.14132  31.243
 3.91 3.80  0.515  0.516  0.519  0.524  0.532 14.25071 15.73541 -7.93778  35.223
 3.91 4.00  0.567  0.568  0.570  0.575  0.584 14.35411 15.93827 -7.73495  39.673
 3.91 4.20  0.621  0.622  0.624  0.630  0.638 14.45683 16.14052 -7.53271  44.652
 3.91 4.40  0.677  0.678  0.681  0.687  0.696 14.55914 16.34235 -7.33087  50.233
 3.91 4.60  0.736  0.738  0.740  0.746  0.756 14.66103 16.54379 -7.12940  56.485
 3.91 4.80  0.798  0.799  0.802  0.808  0.818 14.76270 16.74496 -6.92818  63.499
 3.91 5.00  0.862  0.864  0.866  0.872  0.882 14.86416 16.94586 -6.72723  71.367
 3.91 5.20  0.929  0.931  0.933  0.939  0.949 14.96545 17.14652 -6.52655  80.192
 3.91 5.40  0.999  1.000  1.003  1.009  1.019 15.06668 17.34708 -6.32600  90.104
 3.91 5.60  1.071  1.072  1.075  1.081  1.091 15.16785 17.54755 -6.12558 101.237
 3.91 5.80  1.146  1.148  1.150  1.156  1.165 15.26900 17.74797 -5.92522 113.745
 3.91 6.00  1.224  1.225  1.228  1.233  1.242 15.37014 17.94831 -5.72492 127.798
 3.91 6.25  1.324  1.325  1.328  1.332  1.341 15.49674 18.19859 -5.47461 147.845
 3.91 6.50  1.428  1.429  1.431  1.436  1.444 15.62346 18.44886 -5.22432 171.055
 3.91 6.75  1.534  1.534  1.536  1.541  1.549 15.75029 18.69913 -4.97404 197.957
 3.91 7.00  1.642  1.643  1.645  1.649  1.657 15.87726 18.94939 -4.72377 229.124
 3.91 7.25  1.753  1.754  1.756  1.760  1.768 16.00444 19.19975 -4.47341 265.244
 3.91 7.50  1.867  1.867  1.869  1.873  1.881 16.13162 19.45025 -4.22294 307.058
 3.91 7.75  1.981  1.982  1.983  1.987  1.994 16.25839 19.70120 -3.97194 355.316
 3.91 8.00  2.095  2.096  2.098  2.101  2.108 16.38489 19.95250 -3.72056 411.045
 3.94-2.00 -0.534 -0.534 -0.533 -0.530 -0.527  9.59846  9.63789-14.03522   0.161
 3.94-1.50 -0.527 -0.526 -0.525 -0.521 -0.516 10.09830 10.13799-13.53506   0.285
 3.94-1.00 -0.510 -0.508 -0.506 -0.501 -0.493 10.59791 10.63839-13.03475   0.507
 3.94-0.50 -0.468 -0.467 -0.464 -0.457 -0.446 11.09726 11.13893-12.53417   0.901
 3.94 0.00 -0.380 -0.378 -0.375 -0.367 -0.354 11.59484 11.64118-12.03203   1.599
 3.94 0.50 -0.225 -0.223 -0.220 -0.213 -0.201 12.08778 12.14737-11.52593   2.821
 3.94 1.00 -0.003 -0.001  0.000  0.006  0.016 12.56785 12.66408-11.00913   4.901
 3.94 1.25  0.122  0.123  0.126  0.131  0.140 12.79733 12.92982-10.74329   6.383
 3.94 1.50  0.247  0.248  0.250  0.255  0.263 13.01745 13.20030-10.47276   8.226
 3.94 1.75  0.361  0.362  0.364  0.368  0.375 13.22425 13.47752-10.19570  10.437
 3.94 2.00  0.461  0.462  0.463  0.468  0.474 13.41847 13.75496 -9.91829  13.051
 3.94 2.25  0.543  0.544  0.546  0.550  0.556 13.59846 14.03251 -9.64070  16.056
 3.94 2.50  0.613  0.614  0.616  0.620  0.626 13.76723 14.31006 -9.36311  19.499
 3.94 2.75  0.673  0.674  0.675  0.679  0.686 13.92578 14.58284 -9.09035  23.401
 3.94 3.00  0.727  0.728  0.729  0.733  0.740 14.07664 14.85217 -8.82102  27.839
 3.94 3.20  0.767  0.768  0.770  0.774  0.780 14.19248 15.06465 -8.60850  31.814
 3.94 3.40  0.807  0.808  0.810  0.814  0.821 14.30541 15.27516 -8.39797  36.234
 3.94 3.60  0.847  0.848  0.850  0.854  0.861 14.41560 15.48371 -8.18944  41.137
 3.94 3.80  0.888  0.889  0.891  0.896  0.903 14.52400 15.69077 -7.98243  46.604
 3.94 4.00  0.931  0.932  0.934  0.939  0.946 14.63073 15.89647 -7.77676  52.696
 3.94 4.20  0.976  0.977  0.979  0.984  0.991 14.73612 16.10097 -7.57219  59.493
 3.94 4.40  1.023  1.024  1.026  1.031  1.039 14.84059 16.30466 -7.36844  67.097
 3.94 4.60  1.072  1.073  1.075  1.080  1.088 14.94419 16.50760 -7.16549  75.598
 3.94 4.80  1.124  1.125  1.127  1.132  1.140 15.04725 16.71003 -6.96309  85.122
 3.94 5.00  1.178  1.179  1.182  1.187  1.195 15.14984 16.91196 -6.76120  95.794
 3.94 5.20  1.235  1.236  1.239  1.244  1.252 15.25207 17.11344 -6.55974 107.755
 3.94 5.40  1.295  1.296  1.298  1.303  1.312 15.35408 17.31464 -6.35855 121.180
 3.94 5.60  1.358  1.359  1.361  1.366  1.374 15.45585 17.51559 -6.15761 136.245
 3.94 5.80  1.423  1.424  1.426  1.431  1.439 15.55751 17.71637 -5.95684 153.168
 3.94 6.00  1.492  1.493  1.495  1.499  1.507 15.65916 17.91698 -5.75622 172.185
 3.94 6.25  1.582  1.582  1.584  1.588  1.596 15.78619 18.16752 -5.50562 199.303
 3.94 6.50  1.676  1.676  1.678  1.682  1.689 15.91323 18.41797 -5.25516 230.692
 3.94 6.75  1.773  1.773  1.775  1.779  1.785 16.04052 18.66838 -5.00480 267.078
 3.94 7.00  1.874  1.874  1.876  1.880  1.886 16.16791 18.91871 -4.75449 309.247
 3.94 7.25  1.979  1.979  1.981  1.984  1.991 16.29541 19.16892 -4.50424 358.153
 3.94 7.50  2.087  2.088  2.089  2.093  2.099 16.42292 19.41913 -4.25399 414.794
 3.94 7.75  2.199  2.199  2.201  2.204  2.209 16.55030 19.66948 -4.00365 480.324
 3.94 8.00  2.312  2.313  2.314  2.317  2.322 16.67761 19.91991 -3.75326 556.154
 3.97-2.00 -0.531 -0.531 -0.530 -0.529 -0.526  9.57019  9.60627-14.06687   0.150
 3.97-1.50 -0.530 -0.529 -0.528 -0.526 -0.522 10.06893 10.10755-13.56575   0.267
 3.97-1.00 -0.518 -0.518 -0.516 -0.512 -0.507 10.56820 10.60810-13.06510   0.474
 3.97-0.50 -0.488 -0.487 -0.484 -0.479 -0.471 11.06781 11.10857-12.56479   0.842
 3.97 0.00 -0.416 -0.414 -0.411 -0.404 -0.392 11.56714 11.60906-12.06409   1.496
 3.97 0.50 -0.273 -0.271 -0.267 -0.259 -0.246 12.06521 12.11093-11.56241   2.655
 3.97 1.00 -0.041 -0.039 -0.036 -0.028 -0.015 12.55955 12.61585-11.05730   4.690
 3.97 1.25  0.106  0.108  0.111  0.118  0.130 12.80318 12.87127-10.80180   6.209
 3.97 1.50  0.269  0.271  0.274  0.280  0.291 13.04297 13.12969-10.54333   8.183
 3.97 1.75  0.436  0.437  0.440  0.446  0.456 13.27593 13.39334-10.27977  10.700
 3.97 2.00  0.598  0.599  0.601  0.607  0.615 13.50065 13.66172-10.01149  13.858
 3.97 2.25  0.741  0.742  0.745  0.749  0.757 13.71267 13.93670 -9.73648  17.690
 3.97 2.50  0.865  0.866  0.868  0.873  0.880 13.91238 14.21352 -9.45967  22.264
 3.97 2.75  0.965  0.966  0.968  0.972  0.979 14.09765 14.49167 -9.18155  27.559
 3.97 3.00  1.048  1.049  1.051  1.055  1.062 14.27114 14.76982 -8.90344  33.654
 3.97 3.20  1.103  1.104  1.106  1.110  1.117 14.40168 14.98940 -8.68387  39.111
 3.97 3.40  1.152  1.153  1.155  1.159  1.166 14.52688 15.20693 -8.46634  45.174
 3.97 3.60  1.197  1.198  1.200  1.204  1.210 14.64689 15.42200 -8.25121  51.865
 3.97 3.80  1.239  1.240  1.241  1.245  1.252 14.76326 15.63460 -8.03854  59.300
 3.97 4.00  1.280  1.281  1.282  1.286  1.293 14.87639 15.84510 -7.82798  67.547
 3.97 4.20  1.320  1.321  1.323  1.327  1.333 14.98693 16.05360 -7.61950  76.708
 3.97 4.40  1.361  1.362  1.364  1.368  1.375 15.09559 16.26064 -7.41249  86.926
 3.97 4.60  1.403  1.404  1.406  1.410  1.417 15.20243 16.46629 -7.20690  98.307
 3.97 4.80  1.447  1.448  1.450  1.454  1.461 15.30811 16.67094 -7.00230 111.034
 3.97 5.00  1.493  1.494  1.496  1.500  1.507 15.41280 16.87466 -6.79860 125.263
 3.97 5.20  1.542  1.542  1.544  1.548  1.556 15.51675 17.07757 -6.59561 141.183
 3.97 5.40  1.592  1.593  1.595  1.599  1.606 15.62020 17.27995 -6.39318 159.036
 3.97 5.60  1.646  1.647  1.648  1.652  1.659 15.72314 17.48183 -6.19131 179.046
 3.97 5.80  1.702  1.703  1.704  1.708  1.715 15.82580 17.68339 -5.98981 201.513
 3.97 6.00  1.762  1.762  1.764  1.767  1.774 15.92824 17.88462 -5.78861 226.747
 3.97 6.25  1.840  1.840  1.842  1.845  1.852 16.05604 18.13579 -5.53741 262.706
 3.97 6.50  1.923  1.924  1.925  1.928  1.934 16.18384 18.38668 -5.28651 304.367
 3.97 6.75  2.010  2.011  2.012  2.015  2.021 16.31177 18.63734 -5.03590 352.656
 3.97 7.00  2.103  2.103  2.104  2.107  2.113 16.43981 18.88784 -4.78542 408.638
 3.97 7.25  2.200  2.200  2.202  2.205  2.210 16.56805 19.13817 -4.53501 473.621
 3.97 7.50  2.302  2.302  2.304  2.306  2.311 16.69636 19.38846 -4.28467 549.000
 3.97 7.75  2.408  2.408  2.409  2.412  2.417 16.82470 19.63873 -4.03436 636.422
 3.97 8.00  2.517  2.518  2.519  2.521  2.526 16.95308 19.88897 -3.78410 737.830
 4.00-2.00 -0.515 -0.515 -0.514 -0.513 -0.511  9.54962  9.56797-14.10519   0.142
 4.00-1.50 -0.522 -0.522 -0.521 -0.519 -0.517 10.04415 10.07335-13.59998   0.250
 4.00-1.00 -0.520 -0.520 -0.519 -0.516 -0.512 10.54058 10.57657-13.09664   0.443
 4.00-0.50 -0.502 -0.501 -0.499 -0.495 -0.489 11.03902 11.07809-12.59517   0.787
 4.00 0.00 -0.449 -0.448 -0.445 -0.440 -0.430 11.53820 11.57864-12.09453   1.398
 4.00 0.50 -0.331 -0.330 -0.327 -0.319 -0.307 12.03743 12.07918-11.59380   2.484
 4.00 1.00 -0.119 -0.117 -0.114 -0.105 -0.091 12.53580 12.58093-11.09227   4.409
 4.00 1.25  0.025  0.026  0.030  0.039  0.053 12.78384 12.83261-10.84060   5.867
 4.00 1.50  0.193  0.195  0.199  0.207  0.221 13.03060 13.08529-10.58788   7.795
 4.00 1.75  0.379  0.381  0.384  0.392  0.405 13.27513 13.34014-10.33305  10.329
 4.00 2.00  0.575  0.576  0.579  0.587  0.599 13.51641 13.59770-10.07551  13.633
 4.00 2.25  0.768  0.769  0.772  0.779  0.789 13.75125 13.85993 -9.81326  17.865
 4.00 2.50  0.950  0.951  0.954  0.960  0.969 13.97841 14.12678 -9.54638  23.207
 4.00 2.75  1.110  1.111  1.114  1.119  1.128 14.19371 14.40037 -9.27276  29.735
 4.00 3.00  1.248  1.248  1.251  1.255  1.263 14.39707 14.67660 -8.99654  37.579
 4.00 3.20  1.337  1.338  1.340  1.345  1.352 14.54904 14.89936 -8.77382  44.766
 4.00 3.40  1.414  1.415  1.417  1.421  1.428 14.69330 15.12212 -8.55110  52.854
 4.00 3.60  1.479  1.480  1.481  1.485  1.492 14.82963 15.34384 -8.32940  61.835
 4.00 3.80  1.534  1.535  1.536  1.540  1.547 14.95957 15.56307 -8.11014  71.809
 4.00 4.00  1.583  1.584  1.586  1.589  1.596 15.08386 15.78039 -7.89279  82.852
 4.00 4.20  1.627  1.628  1.629  1.633  1.639 15.20319 15.99479 -7.67841  95.057
 4.00 4.40  1.668  1.669  1.671  1.674  1.681 15.31904 16.20706 -7.46615 108.624
 4.00 4.60  1.708  1.709  1.710  1.714  1.720 15.43159 16.41716 -7.25601 123.653
 4.00 4.80  1.748  1.748  1.750  1.754  1.760 15.54194 16.62552 -7.04758 140.404
 4.00 5.00  1.788  1.789  1.790  1.794  1.800 15.65031 16.83232 -6.84073 159.061
 4.00 5.20  1.830  1.830  1.832  1.835  1.841 15.75707 17.03772 -6.63536 179.867
 4.00 5.40  1.873  1.874  1.875  1.879  1.885 15.86278 17.24215 -6.43095 203.146
 4.00 5.60  1.919  1.919  1.921  1.924  1.930 15.96752 17.44568 -6.22742 229.172
 4.00 5.80  1.967  1.967  1.969  1.972  1.978 16.07165 17.64859 -6.02449 258.350
 4.00 6.00  2.018  2.018  2.020  2.023  2.028 16.17522 17.85089 -5.82217 291.064
 4.00 6.25  2.086  2.086  2.087  2.090  2.095 16.30395 18.10303 -5.57003 337.603
 4.00 6.50  2.159  2.159  2.160  2.163  2.168 16.43249 18.35468 -5.31840 391.463
 4.00 6.75  2.236  2.237  2.238  2.240  2.245 16.56090 18.60601 -5.06713 453.811
 4.00 7.00  2.319  2.320  2.321  2.323  2.328 16.68931 18.85703 -4.81616 526.088
 4.00 7.25  2.408  2.409  2.409  2.412  2.416 16.81781 19.10777 -4.56543 609.975
 4.00 7.50  2.503  2.503  2.504  2.506  2.510 16.94645 19.35832 -4.31489 707.381
 4.00 7.75  2.602  2.603  2.604  2.606  2.609 17.07563 19.60874 -4.06446 820.812
 4.00 8.00  2.707  2.707  2.708  2.710  2.713 17.20520 19.85902 -3.81417 952.858
 4.05-2.00 -0.496 -0.496 -0.495 -0.494 -0.491  9.50853  9.50934-14.16387   0.128
 4.05-1.50 -0.496 -0.496 -0.495 -0.494 -0.491 10.00732 10.01030-13.66274   0.227
 4.05-1.00 -0.498 -0.497 -0.496 -0.494 -0.491 10.50447 10.51335-13.15983   0.401
 4.05-0.50 -0.496 -0.496 -0.495 -0.492 -0.488 10.99922 11.01828-12.65482   0.710
 4.05 0.00 -0.478 -0.477 -0.476 -0.472 -0.466 11.49374 11.52362-12.14954   1.254
 4.05 0.50 -0.413 -0.412 -0.410 -0.405 -0.396 11.99021 12.02694-11.64628   2.221
 4.05 1.00 -0.264 -0.262 -0.259 -0.252 -0.240 12.48855 12.52840-11.14472   3.942
 4.05 1.25 -0.147 -0.145 -0.142 -0.134 -0.120 12.73786 12.77889-10.89416   5.253
 4.05 1.50  0.000  0.000  0.004  0.013  0.027 12.98717 13.02938-10.64359   6.999
 4.05 1.75  0.173  0.175  0.179  0.188  0.203 13.23621 13.28031-10.39270   9.323
 4.05 2.00  0.371  0.373  0.377  0.386  0.402 13.48487 13.53173-10.14140  12.412
 4.05 2.25  0.585  0.587  0.591  0.599  0.614 13.73230 13.78411 -9.88911  16.503
 4.05 2.50  0.806  0.808  0.811  0.820  0.834 13.97809 14.03782 -9.63545  21.901
 4.05 2.75  1.028  1.029  1.033  1.040  1.053 14.22078 14.29408 -9.37918  28.962
 4.05 3.00  1.244  1.245  1.248  1.255  1.266 14.45924 14.55352 -9.11970  38.113
 4.05 3.20  1.406  1.407  1.410  1.416  1.426 14.64463 14.76511 -8.90815  47.180
 4.05 3.40  1.556  1.557  1.560  1.565  1.574 14.82434 14.97971 -8.69360  58.022
 4.05 3.60  1.690  1.691  1.693  1.698  1.706 14.99710 15.19848 -8.47481  70.791
 4.05 3.80  1.806  1.807  1.809  1.813  1.820 15.16123 15.41962 -8.25361  85.519
 4.05 4.00  1.907  1.907  1.909  1.913  1.919 15.31744 15.64138 -8.03184 102.373
 4.05 4.20  1.989  1.990  1.992  1.995  2.001 15.46429 15.86352 -7.80971 121.228
 4.05 4.40  2.060  2.061  2.062  2.065  2.071 15.60390 16.08566 -7.58758 142.362
 4.05 4.60  2.121  2.121  2.122  2.125  2.130 15.73616 16.30639 -7.36688 165.775
 4.05 4.80  2.173  2.173  2.175  2.178  2.182 15.86277 16.52409 -7.14921 191.788
 4.05 5.00  2.221  2.221  2.222  2.225  2.230 15.98439 16.73965 -6.93368 220.612
 4.05 5.20  2.264  2.265  2.266  2.268  2.273 16.10178 16.95253 -6.72074 252.534
 4.05 5.40  2.307  2.307  2.308  2.311  2.315 16.21621 17.16341 -6.50979 288.092
 4.05 5.60  2.348  2.349  2.350  2.352  2.356 16.32778 17.37232 -6.30081 327.587
 4.05 5.80  2.391  2.391  2.392  2.394  2.398 16.43753 17.57970 -6.09339 371.714
 4.05 6.00  2.434  2.435  2.435  2.438  2.441 16.54568 17.78569 -5.88739 421.004
 4.05 6.25  2.491  2.491  2.492  2.494  2.497 16.67916 18.04154 -5.63166 490.919
 4.05 6.50  2.552  2.552  2.552  2.554  2.557 16.81144 18.29601 -5.37727 571.652
 4.05 6.75  2.616  2.616  2.617  2.618  2.621 16.94279 18.54934 -5.12388 664.921
 4.05 7.00  2.685  2.686  2.686  2.688  2.691 17.07372 18.80188 -4.87128 773.090
 4.05 7.25  2.761  2.761  2.761  2.763  2.766 17.20429 19.05385 -4.61934 898.574
 4.05 7.50  2.842  2.842  2.843  2.844  2.847 17.33486 19.30535 -4.367851044.426
 4.05 7.75  2.930  2.930  2.931  2.932  2.934 17.46594 19.55650 -4.116661214.580
 4.05 8.00  3.024  3.025  3.025  3.026  3.028 17.59737 19.80726 -3.865821412.940
 4.10-2.00 -0.491 -0.491 -0.490 -0.487 -0.484  9.45909  9.45879-14.21439   0.114
 4.10-1.50 -0.489 -0.489 -0.488 -0.485 -0.481  9.95899  9.95880-13.71444   0.202
 4.10-1.00 -0.487 -0.487 -0.485 -0.483 -0.478 10.45879 10.45909-13.21410   0.360
 4.10-0.50 -0.482 -0.481 -0.480 -0.477 -0.472 10.95813 10.95961-12.71354   0.639
 4.10 0.00 -0.469 -0.468 -0.466 -0.463 -0.457 11.45652 11.46135-12.21183   1.134
 4.10 0.50 -0.433 -0.432 -0.430 -0.426 -0.419 11.95270 11.96497-11.70819   2.008
 4.10 1.00 -0.347 -0.346 -0.343 -0.338 -0.328 12.44700 12.47056-11.20259   3.548
 4.10 1.25 -0.272 -0.271 -0.268 -0.261 -0.250 12.69432 12.72307-10.95009   4.717
 4.10 1.50 -0.170 -0.168 -0.165 -0.158 -0.146 12.94186 12.97529-10.69789   6.271
 4.10 1.75 -0.037 -0.035 -0.032 -0.024 -0.011 13.19023 13.22686-10.44633   8.347
 4.10 2.00  0.125  0.127  0.130  0.139  0.153 13.43886 13.47813-10.19504  11.114
 4.10 2.25  0.316  0.318  0.321  0.330  0.345 13.68771 13.72914 -9.94399  14.801
 4.10 2.50  0.528  0.530  0.534  0.543  0.557 13.93657 13.98014 -9.69293  19.711
 4.10 2.75  0.757  0.758  0.762  0.771  0.785 14.18493 14.23163 -9.44146  26.235
 4.10 3.00  0.993  0.995  0.999  1.007  1.020 14.43265 14.48373 -9.18943  34.893
 4.10 3.20  1.183  1.184  1.188  1.195  1.207 14.62957 14.68642 -8.98672  43.773
 4.10 3.40  1.371  1.373  1.376  1.382  1.394 14.82495 14.89037 -8.78274  54.815
 4.10 3.60  1.556  1.557  1.559  1.565  1.575 15.01830 15.09607 -8.57703  68.483
 4.10 3.80  1.733  1.734  1.736  1.741  1.750 15.20793 15.30453 -8.36861  85.194
 4.10 4.00  1.900  1.901  1.903  1.907  1.915 15.39375 15.51561 -8.15758 105.518
 4.10 4.20  2.053  2.054  2.055  2.059  2.065 15.57296 15.73099 -7.94222 129.693
 4.10 4.40  2.190  2.191  2.192  2.195  2.201 15.74534 15.94890 -7.72430 158.159
 4.10 4.60  2.310  2.310  2.311  2.314  2.319 15.90972 16.17002 -7.50315 191.112
 4.10 4.80  2.411  2.412  2.413  2.415  2.419 16.06529 16.39246 -7.28067 228.612
 4.10 5.00  2.499  2.499  2.500  2.502  2.506 16.21299 16.61490 -7.05819 270.998
 4.10 5.20  2.571  2.572  2.572  2.574  2.577 16.35233 16.83618 -6.83693 318.133
 4.10 5.40  2.635  2.635  2.636  2.638  2.641 16.48542 17.05626 -6.61692 370.789
 4.10 5.60  2.691  2.692  2.692  2.694  2.696 16.61226 17.27428 -6.39893 429.082
 4.10 5.80  2.743  2.743  2.743  2.745  2.747 16.73459 17.48950 -6.18368 493.983
 4.10 6.00  2.791  2.792  2.792  2.793  2.796 16.85297 17.70252 -5.97062 566.119
 4.10 6.25  2.850  2.850  2.851  2.852  2.854 16.99654 17.96552 -5.70756 667.855
 4.10 6.50  2.909  2.909  2.910  2.911  2.913 17.13672 18.22583 -5.44721 784.804
 4.10 6.75  2.969  2.969  2.970  2.971  2.973 17.27420 18.48387 -5.18915 919.368
 4.10 7.00  3.033  3.033  3.033  3.034  3.036 17.41010 18.74013 -4.932931075.078
 4.10 7.25  3.100  3.100  3.101  3.102  3.103 17.54463 18.99486 -4.678321255.203
 4.10 7.50  3.173  3.173  3.173  3.174  3.176 17.67897 19.24846 -4.424811465.195
 4.10 7.75  3.251  3.251  3.252  3.252  3.254 17.81326 19.50128 -4.172031710.200
 4.10 8.00  3.336  3.336  3.336  3.337  3.338 17.94743 19.75320 -3.920101995.940
 4.15-2.00 -0.492 -0.492 -0.491 -0.489 -0.486  9.40909  9.40875-14.26448   0.101
 4.15-1.50 -0.487 -0.487 -0.486 -0.483 -0.479  9.90907  9.90870-13.76447   0.180
 4.15-1.00 -0.482 -0.481 -0.480 -0.476 -0.471 10.40909 10.40875-13.26440   0.321
 4.15-0.50 -0.476 -0.475 -0.474 -0.469 -0.462 10.90897 10.90881-12.76447   0.570
 4.15 0.00 -0.466 -0.466 -0.464 -0.459 -0.451 11.40892 11.40892-12.26416   1.014
 4.15 0.50 -0.443 -0.442 -0.440 -0.435 -0.426 11.90838 11.90940-11.76371   1.801
 4.15 1.00 -0.384 -0.383 -0.381 -0.375 -0.365 12.40722 12.41061-11.26257   3.199
 4.15 1.25 -0.332 -0.330 -0.328 -0.321 -0.311 12.65603 12.66179-11.01138   4.260
 4.15 1.50 -0.259 -0.258 -0.255 -0.248 -0.237 12.90434 12.91344-10.75970   5.670
 4.15 1.75 -0.163 -0.162 -0.159 -0.152 -0.139 13.15190 13.16597-10.50725   7.539
 4.15 2.00 -0.044 -0.043 -0.039 -0.032 -0.019 13.39915 13.41863-10.25461  10.022
 4.15 2.25  0.101  0.102  0.105  0.113  0.127 13.64615 13.67138-10.00185  13.319
 4.15 2.50  0.272  0.273  0.277  0.285  0.298 13.89315 13.92412 -9.74909  17.701
 4.15 2.75  0.469  0.471  0.474  0.482  0.496 14.14089 14.17623 -9.49696  23.544
 4.15 3.00  0.687  0.689  0.692  0.700  0.713 14.38881 14.42813 -9.24504  31.321
 4.15 3.20  0.875  0.876  0.879  0.887  0.899 14.58727 14.62953 -9.04366  39.361
 4.15 3.40  1.069  1.070  1.073  1.080  1.091 14.78574 14.83092 -8.84229  49.464
 4.15 3.60  1.267  1.268  1.271  1.277  1.287 14.98395 15.03254 -8.64067  62.143
 4.15 3.80  1.466  1.467  1.470  1.475  1.485 15.18131 15.23495 -8.43827  77.994
 4.15 4.00  1.662  1.663  1.665  1.670  1.678 15.37785 15.43807 -8.23515  97.795
 4.15 4.20  1.855  1.856  1.858  1.862  1.869 15.57228 15.64283 -8.03041 122.332
 4.15 4.40  2.043  2.043  2.045  2.048  2.055 15.76410 15.84953 -7.82372 152.568
 4.15 4.60  2.221  2.222  2.223  2.226  2.231 15.95254 16.05892 -7.61433 189.542
 4.15 4.80  2.388  2.388  2.389  2.392  2.396 16.13551 16.27171 -7.40150 233.986
 4.15 5.00  2.541  2.541  2.542  2.544  2.547 16.31302 16.48742 -7.18575 287.040
 4.15 5.20  2.674  2.674  2.675  2.676  2.679 16.48211 16.70766 -6.96552 348.718
 4.15 5.40  2.791  2.791  2.792  2.793  2.795 16.64355 16.92865 -6.74454 419.937
 4.15 5.60  2.891  2.891  2.892  2.893  2.894 16.79653 17.15034 -6.52283 500.815
 4.15 5.80  2.976  2.976  2.977  2.978  2.979 16.94153 17.37220 -6.30096 591.831
 4.15 6.00  3.052  3.052  3.052  3.053  3.054 17.07954 17.59406 -6.07909 693.774
 4.15 6.25  3.132  3.132  3.132  3.133  3.134 17.24297 17.86715 -5.80600 837.367
 4.15 6.50  3.206  3.206  3.206  3.207  3.208 17.39898 18.13704 -5.536111002.106
 4.15 6.75  3.274  3.274  3.274  3.275  3.276 17.54876 18.40299 -5.270141190.729
 4.15 7.00  3.342  3.342  3.342  3.343  3.344 17.69443 18.66586 -5.007271408.170
 4.15 7.25  3.410  3.410  3.410  3.411  3.412 17.83676 18.92595 -4.747281658.850
 4.15 7.50  3.481  3.481  3.481  3.482  3.482 17.97740 19.18384 -4.489461950.397
 4.15 7.75  3.556  3.556  3.556  3.556  3.557 18.11716 19.44006 -4.233242290.873
 4.15 8.00  3.635  3.635  3.635  3.636  3.636 18.25575 19.69443 -3.978812687.254
 4.20-2.00 -0.494 -0.494 -0.494 -0.493 -0.491  9.35908  9.35870-14.31444   0.090
 4.20-1.50 -0.491 -0.491 -0.490 -0.489 -0.487  9.85908  9.85866-13.81446   0.161
 4.20-1.00 -0.485 -0.485 -0.484 -0.482 -0.478 10.35908 10.35870-13.31444   0.286
 4.20-0.50 -0.476 -0.476 -0.474 -0.471 -0.466 10.85902 10.85872-12.81446   0.508
 4.20 0.00 -0.464 -0.463 -0.461 -0.457 -0.449 11.35908 11.35889-12.31435   0.904
 4.20 0.50 -0.446 -0.445 -0.442 -0.436 -0.426 11.85890 11.85884-11.81417   1.607
 4.20 1.00 -0.408 -0.407 -0.404 -0.397 -0.385 12.35870 12.35908-11.31408   2.856
 4.20 1.25 -0.374 -0.373 -0.370 -0.363 -0.350 12.60853 12.60923-11.06390   3.808
 4.20 1.50 -0.325 -0.324 -0.320 -0.313 -0.299 12.85830 12.85944-10.81361   5.077
 4.20 1.75 -0.256 -0.254 -0.251 -0.242 -0.228 13.10793 13.10989-10.56322   6.767
 4.20 2.00 -0.163 -0.162 -0.158 -0.150 -0.135 13.35736 13.36059-10.31265   9.017
 4.20 2.25 -0.045 -0.044 -0.040 -0.032 -0.017 13.60625 13.61162-10.06154  12.009
 4.20 2.50  0.095  0.097  0.100  0.109  0.123 13.85461 13.86309 -9.80995  15.986
 4.20 2.75  0.262  0.264  0.267  0.275  0.289 14.10224 14.11542 -9.55767  21.261
 4.20 3.00  0.448  0.450  0.453  0.460  0.473 14.34947 14.36810 -9.30504  28.262
 4.20 3.20  0.613  0.614  0.617  0.624  0.636 14.54693 14.57049 -9.10269  35.475
 4.20 3.40  0.787  0.788  0.791  0.797  0.809 14.74438 14.77288 -8.90033  44.528
 4.20 3.60  0.971  0.972  0.975  0.981  0.991 14.94198 14.97512 -8.69810  55.902
 4.20 3.80  1.164  1.165  1.168  1.173  1.182 15.13972 15.17721 -8.49599  70.194
 4.20 4.00  1.362  1.363  1.365  1.370  1.378 15.33746 15.37931 -8.29388  88.140
 4.20 4.20  1.566  1.567  1.568  1.572  1.580 15.53500 15.58153 -8.09162 110.648
 4.20 4.40  1.771  1.771  1.773  1.776  1.782 15.73226 15.78396 -7.88914 138.857
 4.20 4.60  1.973  1.974  1.975  1.978  1.983 15.92883 15.98700 -7.68607 174.117
 4.20 4.80  2.173  2.173  2.175  2.177  2.181 16.12360 16.19158 -7.48155 217.877
 4.20 5.00  2.368  2.368  2.369  2.371  2.374 16.31660 16.39759 -7.27564 272.077
 4.20 5.20  2.554  2.554  2.555  2.557  2.559 16.50576 16.60643 -7.06677 338.280
 4.20 5.40  2.730  2.730  2.731  2.732  2.734 16.69053 16.81797 -6.85518 418.473
 4.20 5.60  2.891  2.891  2.891  2.892  2.894 16.86981 17.03314 -6.63995 514.425
 4.20 5.80  3.035  3.035  3.035  3.036  3.037 17.04168 17.25135 -6.42174 626.992
 4.20 6.00  3.163  3.163  3.163  3.164  3.165 17.20656 17.47144 -6.20170 758.057
 4.20 6.25  3.296  3.296  3.296  3.297  3.297 17.40028 17.74899 -5.92427 947.429
 4.20 6.50  3.411  3.411  3.411  3.411  3.412 17.58275 18.02654 -5.646851168.865
 4.20 6.75  3.507  3.507  3.507  3.507  3.508 17.75408 18.30124 -5.372101423.790
 4.20 7.00  3.594  3.594  3.594  3.595  3.595 17.91735 18.57334 -5.099851718.241
 4.20 7.25  3.674  3.674  3.675  3.675  3.675 18.07368 18.84136 -4.831742056.910
 4.20 7.50  3.753  3.753  3.753  3.753  3.754 18.22557 19.10619 -4.566872449.883
 4.20 7.75  3.831  3.831  3.832  3.832  3.832 18.37464 19.36820 -4.304882908.748
 4.20 8.00  3.912  3.912  3.912  3.912  3.913 18.52035 19.62726 -4.045903440.485
 4.25-2.00 -0.492 -0.492 -0.492 -0.491 -0.490  9.30920  9.30856-14.36452   0.081
 4.25-1.50 -0.491 -0.491 -0.490 -0.489 -0.488  9.80909  9.80868-13.86455   0.143
 4.25-1.00 -0.488 -0.488 -0.487 -0.486 -0.483 10.30920 10.30878-13.36442   0.255
 4.25-0.50 -0.481 -0.481 -0.480 -0.478 -0.475 10.80902 10.80868-12.86455   0.453
 4.25 0.00 -0.469 -0.469 -0.467 -0.465 -0.461 11.30899 11.30878-12.36442   0.806
 4.25 0.50 -0.451 -0.450 -0.449 -0.445 -0.438 11.80895 11.80882-11.86423   1.432
 4.25 1.00 -0.421 -0.420 -0.417 -0.411 -0.401 12.30899 12.30899-11.36421   2.546
 4.25 1.25 -0.396 -0.395 -0.393 -0.386 -0.374 12.55892 12.55897-11.11422   3.395
 4.25 1.50 -0.361 -0.360 -0.357 -0.349 -0.335 12.80882 12.80895-10.86423   4.527
 4.25 1.75 -0.313 -0.312 -0.308 -0.299 -0.284 13.05871 13.05905-10.61407   6.036
 4.25 2.00 -0.247 -0.245 -0.242 -0.232 -0.215 13.30857 13.30920-10.36391   8.049
 4.25 2.25 -0.160 -0.159 -0.155 -0.145 -0.127 13.55836 13.55940-10.11376  10.731
 4.25 2.50 -0.050 -0.048 -0.044 -0.034 -0.016 13.80808 13.80969 -9.86360  14.304
 4.25 2.75  0.087  0.088  0.092  0.102  0.119 14.05759 14.06018 -9.61305  19.064
 4.25 3.00  0.250  0.252  0.255  0.264  0.280 14.30685 14.31091 -9.36221  25.402
 4.25 3.20  0.401  0.402  0.405  0.413  0.428 14.50596 14.51179 -9.16134  31.946
 4.25 3.40  0.564  0.565  0.568  0.575  0.588 14.70474 14.71299 -8.96018  40.160
 4.25 3.60  0.738  0.739  0.741  0.748  0.759 14.90304 14.91465 -8.75855  50.460
 4.25 3.80  0.920  0.921  0.924  0.929  0.939 15.10089 15.11674 -8.55646  63.372
 4.25 4.00  1.108  1.108  1.110  1.115  1.123 15.29842 15.31911 -8.35409  79.556
 4.25 4.20  1.302  1.302  1.304  1.308  1.315 15.49569 15.52170 -8.15151  99.834
 4.25 4.40  1.499  1.500  1.501  1.504  1.510 15.69279 15.72442 -7.94880 125.260
 4.25 4.60  1.701  1.702  1.703  1.706  1.711 15.88979 15.92719 -7.74604 157.148
 4.25 4.80  1.907  1.908  1.909  1.911  1.915 16.08666 16.13004 -7.54319 197.133
 4.25 5.00  2.115  2.115  2.116  2.118  2.121 16.28330 16.33304 -7.34018 247.240
 4.25 5.20  2.323  2.323  2.324  2.325  2.328 16.47906 16.53680 -7.13639 309.734
 4.25 5.40  2.527  2.527  2.527  2.529  2.531 16.67360 16.74151 -6.93161 387.461
 4.25 5.60  2.726  2.726  2.726  2.727  2.729 16.86625 16.94777 -6.72532 483.656
 4.25 5.80  2.917  2.917  2.917  2.918  2.919 17.05522 17.15664 -6.51645 601.223
 4.25 6.00  3.098  3.098  3.098  3.099  3.099 17.24055 17.36791 -6.30522 744.271
 4.25 6.25  3.300  3.300  3.300  3.301  3.301 17.46341 17.63734 -6.03585 961.927
 4.25 6.50  3.480  3.480  3.480  3.480  3.481 17.67642 17.91025 -5.762961229.187
 4.25 6.75  3.629  3.629  3.630  3.630  3.630 17.87665 18.18700 -5.486161547.903
 4.25 7.00  3.761  3.761  3.761  3.761  3.761 18.06595 18.46374 -5.209361924.925
 4.25 7.25  3.871  3.871  3.871  3.871  3.871 18.24407 18.73879 -4.934232363.093
 4.25 7.50  3.972  3.972  3.972  3.973  3.973 18.41414 19.01199 -4.660952874.193
 4.25 7.75  4.065  4.065  4.065  4.065  4.065 18.57836 19.28140 -4.391613472.250
 4.25 8.00  4.156  4.156  4.156  4.156  4.156 18.73600 19.54765 -4.125524162.964
 4.30-2.00 -0.487 -0.487 -0.487 -0.485 -0.483  9.26031  9.25744-14.41567   0.072
 4.30-1.50 -0.487 -0.487 -0.487 -0.485 -0.483  9.75944  9.75831-13.91507   0.128
 4.30-1.00 -0.485 -0.485 -0.485 -0.483 -0.481 10.25912 10.25864-13.41454   0.227
 4.30-0.50 -0.481 -0.481 -0.480 -0.479 -0.476 10.75906 10.75869-12.91435   0.404
 4.30 0.00 -0.472 -0.472 -0.471 -0.469 -0.465 11.25912 11.25864-12.41443   0.718
 4.30 0.50 -0.455 -0.455 -0.454 -0.452 -0.447 11.75899 11.75876-11.91435   1.277
 4.30 1.00 -0.430 -0.429 -0.428 -0.425 -0.419 12.25888 12.25888-11.41431   2.270
 4.30 1.25 -0.411 -0.410 -0.409 -0.405 -0.397 12.50885 12.50889-11.16433   3.026
 4.30 1.50 -0.386 -0.385 -0.383 -0.378 -0.369 12.75884 12.75891-10.91435   4.035
 4.30 1.75 -0.351 -0.350 -0.347 -0.341 -0.330 13.00886 13.00901-10.66422   5.381
 4.30 2.00 -0.302 -0.300 -0.297 -0.290 -0.276 13.25888 13.25912-10.41409   7.175
 4.30 2.25 -0.236 -0.234 -0.231 -0.222 -0.207 13.50874 13.50913-10.16404   9.567
 4.30 2.50 -0.150 -0.148 -0.144 -0.134 -0.117 13.75861 13.75914 -9.91400  12.756
 4.30 2.75 -0.041 -0.040 -0.036 -0.026 -0.007 14.00850 14.00934 -9.66385  17.008
 4.30 3.00  0.091  0.093  0.097  0.107  0.126 14.25840 14.25959 -9.41364  22.676
 4.30 3.20  0.218  0.219  0.223  0.233  0.251 14.45814 14.45980 -9.21341  28.540
 4.30 3.40  0.361  0.363  0.366  0.375  0.391 14.65777 14.66006 -9.01311  35.917
 4.30 3.60  0.521  0.522  0.525  0.533  0.548 14.85732 14.86040 -8.81272  45.196
 4.30 3.80  0.695  0.696  0.699  0.706  0.719 15.05674 15.06096 -8.61215  56.860
 4.30 4.00  0.879  0.880  0.882  0.888  0.898 15.25600 15.26174 -8.41139  71.517
 4.30 4.20  1.073  1.074  1.075  1.080  1.089 15.45478 15.46293 -8.21018  89.910
 4.30 4.40  1.271  1.271  1.273  1.276  1.284 15.65316 15.66451 -8.00858 112.980
 4.30 4.60  1.472  1.472  1.473  1.476  1.482 15.85109 15.86653 -7.80653 141.892
 4.30 4.80  1.675  1.675  1.676  1.679  1.684 16.04852 16.06899 -7.60405 178.100
 4.30 5.00  1.879  1.879  1.880  1.882  1.885 16.24551 16.27184 -7.40121 223.434
 4.30 5.20  2.087  2.087  2.087  2.089  2.092 16.44216 16.47497 -7.19815 280.210
 4.30 5.40  2.295  2.296  2.296  2.297  2.300 16.63829 16.67852 -6.99468 351.208
 4.30 5.60  2.506  2.506  2.507  2.508  2.509 16.83398 16.88246 -6.79082 439.965
 4.30 5.80  2.716  2.717  2.717  2.718  2.719 17.02886 17.08706 -6.58623 550.604
 4.30 6.00  2.923  2.923  2.923  2.923  2.924 17.22272 17.29248 -6.38080 688.231
 4.30 6.25  3.171  3.171  3.171  3.172  3.172 17.46121 17.55198 -6.12130 905.700
 4.30 6.50  3.407  3.407  3.407  3.407  3.408 17.69478 17.81471 -5.858551185.206
 4.30 6.75  3.618  3.618  3.618  3.618  3.619 17.91989 18.08286 -5.590351536.004
 4.30 7.00  3.809  3.809  3.809  3.809  3.809 18.13609 18.35449 -5.318671970.307
 4.30 7.25  3.970  3.970  3.970  3.970  3.970 18.34060 18.63017 -5.042962493.292
 4.30 7.50  4.114  4.114  4.114  4.114  4.114 18.53504 18.90585 -4.767263118.598
 4.30 7.75  4.236  4.236  4.236  4.236  4.236 18.72010 19.18030 -4.492803858.938
 4.30 8.00  4.350  4.350  4.350  4.350  4.351 18.89553 19.45393 -4.219184722.515
 4.35-2.00 -0.462 -0.462 -0.461 -0.460 -0.458  9.22272  9.19479-14.47847   0.067
 4.35-1.50 -0.469 -0.469 -0.468 -0.467 -0.464  9.71784  9.69975-13.97347   0.117
 4.35-1.00 -0.475 -0.475 -0.474 -0.472 -0.469 10.21325 10.20439-13.46865   0.205
 4.35-0.50 -0.476 -0.476 -0.475 -0.473 -0.469 10.71062 10.70714-12.96618   0.362
 4.35 0.00 -0.471 -0.471 -0.470 -0.468 -0.463 11.20951 11.20817-12.46496   0.641
 4.35 0.50 -0.458 -0.457 -0.456 -0.454 -0.449 11.70919 11.70859-11.96457   1.138
 4.35 1.00 -0.433 -0.432 -0.431 -0.429 -0.423 12.20898 12.20871-11.46433   2.023
 4.35 1.25 -0.415 -0.415 -0.414 -0.411 -0.405 12.45894 12.45878-11.21423   2.698
 4.35 1.50 -0.394 -0.394 -0.393 -0.389 -0.383 12.70893 12.70885-10.96417   3.597
 4.35 1.75 -0.367 -0.367 -0.365 -0.362 -0.354 12.95895 12.95891-10.71419   4.796
 4.35 2.00 -0.332 -0.331 -0.330 -0.325 -0.317 13.20898 13.20898-10.46420   6.395
 4.35 2.25 -0.283 -0.283 -0.281 -0.275 -0.266 13.45883 13.45904-10.21420   8.527
 4.35 2.50 -0.219 -0.218 -0.216 -0.210 -0.198 13.70868 13.70910 -9.96417  11.370
 4.35 2.75 -0.134 -0.133 -0.130 -0.123 -0.109 13.95869 13.95917 -9.71406  15.161
 4.35 3.00 -0.025 -0.024 -0.021 -0.013  0.001 14.20871 14.20925 -9.46395  20.217
 4.35 3.20  0.080  0.081  0.084  0.093  0.108 14.40853 14.40934 -9.26388  25.448
 4.35 3.40  0.203  0.205  0.208  0.216  0.232 14.60834 14.60946 -9.06381  32.032
 4.35 3.60  0.345  0.346  0.349  0.357  0.373 14.80818 14.80960 -8.86365  40.318
 4.35 3.80  0.502  0.503  0.506  0.514  0.528 15.00804 15.00980 -8.66338  50.747
 4.35 4.00  0.673  0.675  0.677  0.684  0.697 15.20790 15.21005 -8.46306  63.871
 4.35 4.20  0.858  0.859  0.861  0.867  0.879 15.40752 15.41039 -8.26275  80.377
 4.35 4.40  1.052  1.052  1.054  1.059  1.068 15.60697 15.61085 -8.06238 101.131
 4.35 4.60  1.252  1.253  1.254  1.258  1.265 15.80627 15.81151 -7.86179 127.221
 4.35 4.80  1.458  1.458  1.460  1.463  1.469 16.00534 16.01249 -7.66077 159.987
 4.35 5.00  1.666  1.666  1.667  1.669  1.674 16.20412 16.21378 -7.45942 201.121
 4.35 5.20  1.878  1.878  1.879  1.881  1.884 16.40227 16.41553 -7.25773 252.663
 4.35 5.40  2.089  2.090  2.090  2.091  2.094 16.59986 16.61777 -7.05555 317.213
 4.35 5.60  2.301  2.301  2.302  2.303  2.305 16.79691 16.82058 -6.85279 397.998
 4.35 5.80  2.514  2.514  2.515  2.516  2.517 16.99328 17.02405 -6.64930 498.957
 4.35 6.00  2.727  2.727  2.728  2.728  2.729 17.18893 17.22814 -6.44515 624.998
 4.35 6.25  2.995  2.995  2.995  2.995  2.996 17.43237 17.48401 -6.18921 827.188
 4.35 6.50  3.256  3.256  3.256  3.257  3.257 17.67385 17.74131 -5.931821092.342
 4.35 6.75  3.507  3.507  3.507  3.507  3.508 17.91193 18.00122 -5.671851436.874
 4.35 7.00  3.745  3.745  3.745  3.745  3.746 18.14551 18.26411 -5.408941880.301
 4.35 7.25  3.959  3.959  3.959  3.959  3.960 18.37138 18.53179 -5.141392438.602
 4.35 7.50  4.155  4.155  4.155  4.155  4.155 18.58917 18.80264 -4.870633133.264
 4.35 7.75  4.322  4.322  4.322  4.322  4.323 18.79661 19.07589 -4.597343978.414
 4.35 8.00  4.475  4.475  4.475  4.475  4.475 18.99445 19.35180 -4.321304996.228
 4.40-2.00 -0.453 -0.453 -0.453 -0.452 -0.450  9.17696  9.13988-14.53313   0.061
 4.40-1.50 -0.452 -0.452 -0.452 -0.451 -0.449  9.67651  9.64048-14.03269   0.107
 4.40-1.00 -0.452 -0.452 -0.451 -0.450 -0.448 10.17522 10.14176-13.53121   0.190
 4.40-0.50 -0.454 -0.454 -0.453 -0.451 -0.448 10.67219 10.64513-13.02803   0.335
 4.40 0.00 -0.457 -0.456 -0.455 -0.453 -0.449 11.16732 11.15014-12.52288   0.587
 4.40 0.50 -0.453 -0.452 -0.451 -0.448 -0.443 11.66285 11.65485-12.01832   1.028
 4.40 1.00 -0.435 -0.435 -0.433 -0.430 -0.423 12.16047 12.15746-11.51570   1.812
 4.40 1.25 -0.419 -0.419 -0.417 -0.414 -0.407 12.40979 12.40804-11.26515   2.411
 4.40 1.50 -0.398 -0.398 -0.396 -0.393 -0.386 12.65935 12.65839-11.01480   3.211
 4.40 1.75 -0.372 -0.372 -0.370 -0.366 -0.359 12.90912 12.90853-10.76458   4.278
 4.40 2.00 -0.341 -0.340 -0.339 -0.335 -0.327 13.15897 13.15866-10.51442   5.702
 4.40 2.25 -0.301 -0.300 -0.299 -0.295 -0.287 13.40886 13.40881-10.26432   7.602
 4.40 2.50 -0.251 -0.250 -0.249 -0.244 -0.236 13.65878 13.65897-10.01421  10.135
 4.40 2.75 -0.185 -0.184 -0.183 -0.178 -0.168 13.90872 13.90912 -9.76410  13.514
 4.40 3.00 -0.101 -0.100 -0.098 -0.093 -0.083 14.15866 14.15927 -9.51400  18.020
 4.40 3.20 -0.015 -0.014 -0.012 -0.006  0.004 14.35857 14.35930 -9.31394  22.684
 4.40 3.40  0.086  0.087  0.089  0.095  0.107 14.55845 14.55933 -9.11388  28.554
 4.40 3.60  0.208  0.208  0.211  0.217  0.229 14.75833 14.75937 -8.91377  35.943
 4.40 3.80  0.348  0.349  0.351  0.357  0.369 14.95820 14.95945 -8.71360  45.244
 4.40 4.00  0.505  0.505  0.508  0.513  0.525 15.15806 15.15957 -8.51343  56.951
 4.40 4.20  0.678  0.679  0.681  0.686  0.697 15.35791 15.35974 -8.31328  71.683
 4.40 4.40  0.863  0.863  0.865  0.870  0.880 15.55773 15.55997 -8.11312  90.221
 4.40 4.60  1.057  1.057  1.059  1.063  1.072 15.75752 15.76025 -7.91293 113.548
 4.40 4.80  1.259  1.259  1.260  1.264  1.271 15.95723 15.96061 -7.71260 142.893
 4.40 5.00  1.465  1.465  1.466  1.469  1.475 16.15685 16.16107 -7.51216 179.804
 4.40 5.20  1.677  1.677  1.678  1.680  1.685 16.35619 16.36168 -7.31153 226.192
 4.40 5.40  1.891  1.891  1.892  1.894  1.897 16.55524 16.56253 -7.11064 284.462
 4.40 5.60  2.107  2.108  2.108  2.109  2.112 16.75401 16.76370 -6.90946 357.614
 4.40 5.80  2.325  2.326  2.326  2.327  2.329 16.95233 16.96540 -6.70777 449.316
 4.40 6.00  2.543  2.543  2.543  2.544  2.545 17.15014 17.16761 -6.50557 564.186
 4.40 6.25  2.817  2.817  2.817  2.818  2.819 17.39609 17.42140 -6.25167 748.894
 4.40 6.50  3.090  3.090  3.090  3.090  3.091 17.64058 17.67642 -5.99654 992.447
 4.40 6.75  3.361  3.361  3.361  3.361  3.362 17.88353 17.93288 -5.740151312.741
 4.40 7.00  3.624  3.624  3.624  3.624  3.624 18.12418 18.19117 -5.482011731.761
 4.40 7.25  3.872  3.872  3.872  3.872  3.873 18.36128 18.45187 -5.221352275.338
 4.40 7.50  4.109  4.109  4.109  4.109  4.109 18.59384 18.71542 -4.957822973.980
 4.40 7.75  4.320  4.320  4.320  4.321  4.321 18.81889 18.98285 -4.690393853.484
 4.40 8.00  4.517  4.517  4.517  4.517  4.517 19.03743 19.25382 -4.419424955.603
 4.45-2.00 -0.451 -0.451 -0.451 -0.450 -0.448  9.12743  9.08991-14.58336   0.054
 4.45-1.50 -0.450 -0.450 -0.450 -0.449 -0.447  9.62716  9.58973-14.08339   0.096
 4.45-1.00 -0.449 -0.449 -0.448 -0.447 -0.444 10.12711 10.08990-13.58336   0.171
 4.45-0.50 -0.447 -0.446 -0.446 -0.444 -0.441 10.62685 10.59017-13.08302   0.303
 4.45 0.00 -0.443 -0.443 -0.442 -0.440 -0.437 11.12613 11.09096-12.58220   0.538
 4.45 0.50 -0.437 -0.437 -0.436 -0.434 -0.429 11.62428 11.59284-12.08029   0.951
 4.45 1.00 -0.425 -0.425 -0.424 -0.421 -0.415 12.12057 12.09691-11.57610   1.670
 4.45 1.25 -0.414 -0.414 -0.413 -0.409 -0.402 12.36800 12.34959-11.32349   2.209
 4.45 1.50 -0.397 -0.397 -0.396 -0.392 -0.384 12.61543 12.60228-11.07089   2.921
 4.45 1.75 -0.375 -0.374 -0.373 -0.368 -0.360 12.86332 12.85445-10.81876   3.868
 4.45 2.00 -0.344 -0.343 -0.342 -0.338 -0.329 13.11160 13.10619-10.56703   5.128
 4.45 2.25 -0.306 -0.306 -0.304 -0.300 -0.291 13.36048 13.35725-10.31592   6.812
 4.45 2.50 -0.260 -0.260 -0.258 -0.253 -0.244 13.60970 13.60799-10.06515   9.061
 4.45 2.75 -0.204 -0.203 -0.201 -0.197 -0.187 13.85921 13.85854 -9.81465  12.063
 4.45 3.00 -0.134 -0.134 -0.132 -0.127 -0.117 14.10890 14.10890 -9.56432  16.071
 4.45 3.20 -0.064 -0.064 -0.062 -0.057 -0.047 14.30880 14.30901 -9.36418  20.225
 4.45 3.40  0.018  0.019  0.021  0.026  0.036 14.50869 14.50912 -9.16405  25.455
 4.45 3.60  0.119  0.120  0.122  0.127  0.137 14.70855 14.70925 -8.96393  32.041
 4.45 3.80  0.240  0.240  0.242  0.247  0.256 14.90839 14.90942 -8.76380  40.332
 4.45 4.00  0.377  0.378  0.379  0.384  0.393 15.10823 15.10958 -8.56368  50.769
 4.45 4.20  0.535  0.536  0.537  0.542  0.550 15.30813 15.30967 -8.36356  63.904
 4.45 4.40  0.707  0.708  0.709  0.713  0.721 15.50804 15.50976 -8.16344  80.436
 4.45 4.60  0.893  0.893  0.894  0.898  0.905 15.70793 15.70987 -7.96331 101.244
 4.45 4.80  1.088  1.089  1.090  1.093  1.100 15.90776 15.91004 -7.76312 127.431
 4.45 5.00  1.290  1.291  1.292  1.294  1.300 16.10755 16.11025 -7.56288 160.388
 4.45 5.20  1.499  1.499  1.500  1.502  1.507 16.30724 16.31055 -7.36259 201.845
 4.45 5.40  1.711  1.712  1.712  1.714  1.718 16.50684 16.51095 -7.16221 253.988
 4.45 5.60  1.927  1.927  1.928  1.929  1.932 16.70634 16.71149 -6.96171 319.564
 4.45 5.80  2.145  2.145  2.146  2.147  2.149 16.90569 16.91227 -6.76098 401.984
 4.45 6.00  2.365  2.365  2.365  2.366  2.368 17.10483 17.11327 -6.56004 505.535
 4.45 6.25  2.643  2.643  2.643  2.644  2.645 17.35301 17.36495 -6.30833 672.764
 4.45 6.50  2.922  2.922  2.922  2.922  2.923 17.60032 17.61732 -6.05586 894.454
 4.45 6.75  3.203  3.203  3.203  3.203  3.204 17.84642 17.87101 -5.802131187.450
 4.45 7.00  3.482  3.482  3.482  3.482  3.482 18.09096 18.12613 -5.546991573.555
 4.45 7.25  3.754  3.754  3.754  3.754  3.754 18.33330 18.38309 -5.290052079.961
 4.45 7.50  4.014  4.014  4.014  4.014  4.014 18.57287 18.64217 -5.031002740.646
 4.45 7.75  4.256  4.256  4.256  4.256  4.257 18.80821 18.90405 -4.769103593.615
 4.45 8.00  4.487  4.487  4.487  4.487  4.487 19.03981 19.16850 -4.504594691.800
 4.50-2.00 -0.451 -0.451 -0.450 -0.450 -0.448  9.07737  9.03981-14.63339   0.048
 4.50-1.50 -0.449 -0.449 -0.449 -0.448 -0.445  9.57726  9.53970-14.13342   0.086
 4.50-1.00 -0.447 -0.447 -0.447 -0.445 -0.443 10.07737 10.03981-13.63339   0.152
 4.50-0.50 -0.445 -0.445 -0.444 -0.443 -0.440 10.57715 10.53970-13.13342   0.271
 4.50 0.00 -0.442 -0.442 -0.441 -0.440 -0.436 11.07700 11.03981-12.63320   0.481
 4.50 0.50 -0.437 -0.437 -0.436 -0.434 -0.430 11.57692 11.54008-12.13312   0.855
 4.50 1.00 -0.426 -0.425 -0.425 -0.422 -0.417 12.07664 12.04060-11.63246   1.518
 4.50 1.25 -0.416 -0.415 -0.414 -0.412 -0.406 12.32604 12.29119-11.38191   2.021
 4.50 1.50 -0.401 -0.401 -0.400 -0.396 -0.390 12.57507 12.54208-11.13112   2.688
 4.50 1.75 -0.379 -0.379 -0.378 -0.374 -0.367 12.82368 12.79347-10.87971   3.569
 4.50 2.00 -0.349 -0.349 -0.347 -0.344 -0.336 13.07188 13.04532-10.62782   4.732
 4.50 2.25 -0.310 -0.310 -0.308 -0.304 -0.296 13.31951 13.29790-10.37526   6.259
 4.50 2.50 -0.263 -0.262 -0.261 -0.256 -0.247 13.56714 13.55047-10.12269   8.279
 4.50 2.75 -0.207 -0.207 -0.205 -0.200 -0.191 13.81482 13.80298 -9.87024  10.954
 4.50 3.00 -0.142 -0.141 -0.139 -0.134 -0.124 14.06258 14.05538 -9.61798  14.499
 4.50 3.20 -0.080 -0.080 -0.078 -0.072 -0.062 14.26137 14.25653 -9.41677  18.177
 4.50 3.40 -0.008 -0.007 -0.005  0.000  0.009 14.46041 14.45741 -9.21581  22.809
 4.50 3.60  0.077  0.078  0.079  0.085  0.095 14.65971 14.65801 -9.01512  28.647
 4.50 3.80  0.179  0.180  0.181  0.186  0.196 14.85918 14.85846 -8.81459  36.004
 4.50 4.00  0.298  0.298  0.300  0.305  0.314 15.05881 15.05881 -8.61422  45.277
 4.50 4.20  0.437  0.438  0.440  0.444  0.452 15.25862 15.25908 -8.41400  56.981
 4.50 4.40  0.593  0.594  0.595  0.599  0.606 15.45844 15.45932 -8.21379  71.716
 4.50 4.60  0.765  0.766  0.767  0.770  0.776 15.65821 15.65953 -8.01357  90.265
 4.50 4.80  0.950  0.951  0.952  0.955  0.960 15.85794 15.85974 -7.81336 113.614
 4.50 5.00  1.144  1.144  1.145  1.147  1.152 16.05767 16.05994 -7.61315 143.002
 4.50 5.20  1.348  1.348  1.349  1.350  1.355 16.25746 16.26016 -7.41293 179.982
 4.50 5.40  1.556  1.556  1.557  1.558  1.562 16.45725 16.46039 -7.21272 226.514
 4.50 5.60  1.768  1.768  1.769  1.770  1.773 16.65700 16.66065 -7.01245 285.064
 4.50 5.80  1.984  1.985  1.985  1.986  1.989 16.85662 16.86101 -6.81205 358.722
 4.50 6.00  2.203  2.203  2.203  2.204  2.206 17.05614 17.06145 -6.61154 451.370
 4.50 6.25  2.479  2.479  2.479  2.480  2.481 17.30532 17.31228 -6.36075 601.328
 4.50 6.50  2.756  2.756  2.756  2.757  2.758 17.55413 17.56348 -6.10964 800.761
 4.50 6.75  3.040  3.040  3.040  3.040  3.041 17.80229 17.81525 -5.857831065.609
 4.50 7.00  3.325  3.325  3.325  3.325  3.326 18.04961 18.06782 -5.605201416.690
 4.50 7.25  3.609  3.609  3.609  3.609  3.609 18.29552 18.32175 -5.351331880.288
 4.50 7.50  3.888  3.888  3.888  3.888  3.889 18.53970 18.57726 -5.095932490.501
 4.50 7.75  4.156  4.156  4.156  4.156  4.156 18.78106 18.83503 -4.838203287.992
 4.50 8.00  4.408  4.408  4.408  4.408  4.408 19.01995 19.09482 -4.578404328.468
 4.55-2.00 -0.451 -0.451 -0.451 -0.450 -0.448  9.02735  8.98976-14.68340   0.043
 4.55-1.50 -0.450 -0.450 -0.450 -0.449 -0.447  9.52724  9.48968-14.18343   0.076
 4.55-1.00 -0.448 -0.448 -0.448 -0.447 -0.445 10.02735  9.98976-13.68340   0.136
 4.55-0.50 -0.446 -0.446 -0.445 -0.444 -0.441 10.52724 10.48968-13.18343   0.241
 4.55 0.00 -0.442 -0.442 -0.442 -0.440 -0.437 11.02735 10.98981-12.68340   0.429
 4.55 0.50 -0.438 -0.437 -0.437 -0.435 -0.431 11.52711 11.48982-12.18336   0.762
 4.55 1.00 -0.430 -0.430 -0.429 -0.427 -0.422 12.02694 11.98994-11.68319   1.356
 4.55 1.25 -0.424 -0.423 -0.422 -0.420 -0.415 12.27696 12.24001-11.43314   1.808
 4.55 1.50 -0.414 -0.414 -0.413 -0.410 -0.404 12.52699 12.49010-11.18310   2.409
 4.55 1.75 -0.399 -0.399 -0.398 -0.395 -0.388 12.77684 12.74029-10.93290   3.211
 4.55 2.00 -0.377 -0.377 -0.376 -0.372 -0.365 13.02653 12.99061-10.68256   4.278
 4.55 2.25 -0.344 -0.344 -0.343 -0.339 -0.331 13.27605 13.24113-10.43207   5.696
 4.55 2.50 -0.299 -0.298 -0.297 -0.293 -0.284 13.52530 13.49192-10.18131   7.578
 4.55 2.75 -0.238 -0.237 -0.236 -0.231 -0.222 13.77409 13.74320 -9.92999  10.067
 4.55 3.00 -0.162 -0.162 -0.160 -0.156 -0.146 14.02243 13.99493 -9.67820  13.354
 4.55 3.20 -0.093 -0.092 -0.091 -0.086 -0.077 14.22049 14.19694 -9.47622  16.707
 4.55 3.40 -0.017 -0.016 -0.014 -0.010  0.000 14.41856 14.39896 -9.27422  20.899
 4.55 3.60  0.066  0.067  0.069  0.073  0.083 14.61663 14.60096 -9.07220  26.142
 4.55 3.80  0.160  0.161  0.162  0.167  0.177 14.81472 14.80289 -8.87019  32.699
 4.55 4.00  0.266  0.267  0.269  0.273  0.283 15.01284 15.00475 -8.66817  40.902
 4.55 4.20  0.388  0.389  0.390  0.395  0.403 15.21144 15.20618 -8.46682  51.250
 4.55 4.40  0.526  0.526  0.528  0.532  0.540 15.41033 15.40736 -8.26575  64.279
 4.55 4.60  0.680  0.681  0.682  0.686  0.692 15.60957 15.60826 -8.06499  80.711
 4.55 4.80  0.850  0.851  0.852  0.854  0.860 15.80903 15.80895 -7.86440 101.432
 4.55 5.00  1.031  1.031  1.032  1.034  1.039 16.00860 16.00945 -7.66394 127.555
 4.55 5.20  1.225  1.225  1.226  1.228  1.232 16.20824 16.20975 -7.46359 160.515
 4.55 5.40  1.425  1.425  1.425  1.427  1.430 16.40789 16.41002 -7.26326 201.999
 4.55 5.60  1.631  1.631  1.631  1.633  1.635 16.60756 16.61026 -7.06295 254.210
 4.55 5.80  1.843  1.843  1.843  1.844  1.846 16.80723 16.81049 -6.86265 319.919
 4.55 6.00  2.056  2.056  2.057  2.057  2.059 17.00690 17.01073 -6.66234 402.612
 4.55 6.25  2.329  2.329  2.329  2.330  2.331 17.25636 17.26126 -6.41180 536.557
 4.55 6.50  2.603  2.603  2.603  2.603  2.605 17.50570 17.51202 -6.16109 714.927
 4.55 6.75  2.880  2.880  2.880  2.881  2.882 17.75477 17.76307 -5.91011 952.322
 4.55 7.00  3.163  3.163  3.163  3.164  3.164 18.00346 18.01452 -5.658761267.991
 4.55 7.25  3.449  3.449  3.449  3.449  3.449 18.25138 18.26650 -5.406771686.858
 4.55 7.50  3.734  3.734  3.734  3.734  3.734 18.49831 18.51930 -5.153912241.613
 4.55 7.75  4.013  4.013  4.013  4.013  4.013 18.74347 18.77383 -4.899432972.727
 4.55 8.00  4.284  4.284  4.284  4.284  4.284 18.98713 19.02979 -4.643593935.477
 4.60-2.00 -0.450 -0.450 -0.449 -0.449 -0.446  8.97727  8.93972-14.73353   0.038
 4.60-1.50 -0.449 -0.449 -0.449 -0.448 -0.446  9.47727  9.43965-14.23344   0.068
 4.60-1.00 -0.449 -0.449 -0.448 -0.447 -0.445  9.97727  9.93977-13.73330   0.121
 4.60-0.50 -0.447 -0.447 -0.447 -0.446 -0.443 10.47727 10.43981-13.23344   0.215
 4.60 0.00 -0.445 -0.445 -0.444 -0.443 -0.440 10.97727 10.93977-12.73330   0.382
 4.60 0.50 -0.441 -0.441 -0.441 -0.439 -0.436 11.47712 11.43981-12.23336   0.680
 4.60 1.00 -0.435 -0.435 -0.434 -0.432 -0.428 11.97717 11.93982-11.73330   1.208
 4.60 1.25 -0.430 -0.430 -0.429 -0.427 -0.422 12.22715 12.18981-11.48329   1.611
 4.60 1.50 -0.423 -0.423 -0.422 -0.420 -0.414 12.47712 12.43981-11.23329   2.148
 4.60 1.75 -0.414 -0.413 -0.412 -0.410 -0.404 12.72709 12.68989-10.98318   2.865
 4.60 2.00 -0.399 -0.399 -0.398 -0.395 -0.388 12.97704 12.93997-10.73306   3.820
 4.60 2.25 -0.378 -0.377 -0.376 -0.373 -0.366 13.22696 13.19005-10.48303   5.093
 4.60 2.50 -0.346 -0.346 -0.344 -0.341 -0.332 13.47683 13.44012-10.23299   6.788
 4.60 2.75 -0.300 -0.300 -0.298 -0.294 -0.285 13.72664 13.69037 -9.98276   9.046
 4.60 3.00 -0.237 -0.236 -0.235 -0.230 -0.221 13.97635 13.94077 -9.73236  12.051
 4.60 3.20 -0.172 -0.171 -0.170 -0.165 -0.155 14.17593 14.14120 -9.53194  15.152
 4.60 3.40 -0.093 -0.093 -0.091 -0.086 -0.076 14.37532 14.34180 -9.33135  19.040
 4.60 3.60  0.000  0.000  0.001  0.006  0.016 14.57450 14.54267 -9.13048  23.908
 4.60 3.80  0.105  0.106  0.107  0.112  0.121 14.77340 14.74389 -8.92924  29.988
 4.60 4.00  0.223  0.224  0.225  0.229  0.238 14.97202 14.94542 -8.72769  37.579
 4.60 4.20  0.352  0.353  0.354  0.358  0.366 15.17002 15.14748 -8.52565  47.001
 4.60 4.40  0.490  0.490  0.492  0.495  0.503 15.36802 15.34953 -8.32360  58.785
 4.60 4.60  0.637  0.637  0.638  0.641  0.648 15.56603 15.55158 -8.12156  73.524
 4.60 4.80  0.793  0.793  0.794  0.797  0.803 15.76410 15.75358 -7.91956  91.963
 4.60 5.00  0.959  0.959  0.960  0.962  0.967 15.96223 15.95554 -7.71760 115.035
 4.60 5.20  1.136  1.136  1.137  1.139  1.143 16.16084 16.15692 -7.51624 144.123
 4.60 5.40  1.321  1.321  1.322  1.323  1.327 16.35971 16.35803 -7.31513 180.758
 4.60 5.60  1.515  1.515  1.516  1.517  1.520 16.55891 16.55887 -7.11430 227.064
 4.60 5.80  1.717  1.717  1.717  1.718  1.721 16.75830 16.75954 -6.91364 285.527
 4.60 6.00  1.922  1.922  1.923  1.923  1.925 16.95775 16.96009 -6.71309 359.167
 4.60 6.25  2.187  2.187  2.187  2.188  2.189 17.20714 17.21065 -6.46253 478.620
 4.60 6.50  2.454  2.454  2.454  2.455  2.456 17.45652 17.46120 -6.21197 637.802
 4.60 6.75  2.721  2.721  2.721  2.722  2.723 17.70582 17.71191 -5.96127 849.841
 4.60 7.00  2.997  2.997  2.997  2.998  2.998 17.95502 17.96280 -5.710411132.217
 4.60 7.25  3.277  3.277  3.277  3.277  3.277 18.20380 18.21396 -5.459231507.737
 4.60 7.50  3.558  3.558  3.558  3.558  3.558 18.45209 18.46553 -5.207612006.691
 4.60 7.75  3.837  3.837  3.837  3.837  3.837 18.69946 18.71808 -4.955082667.863
 4.60 8.00  4.111  4.111  4.111  4.111  4.112 18.94606 18.97141 -4.701803543.660
 4.65-2.00 -0.449 -0.449 -0.448 -0.447 -0.445  8.92732  8.88975-14.78331   0.034
 4.65-1.50 -0.448 -0.448 -0.447 -0.446 -0.444  9.42732  9.38970-14.28341   0.061
 4.65-1.00 -0.447 -0.447 -0.447 -0.446 -0.443  9.92727  9.88975-13.78331   0.108
 4.65-0.50 -0.446 -0.446 -0.446 -0.445 -0.442 10.42716 10.38970-13.28341   0.192
 4.65 0.00 -0.445 -0.445 -0.445 -0.443 -0.440 10.92727 10.88981-12.78331   0.341
 4.65 0.50 -0.443 -0.443 -0.443 -0.441 -0.438 11.42716 11.38970-12.28341   0.606
 4.65 1.00 -0.439 -0.439 -0.439 -0.437 -0.433 11.92722 11.88981-11.78331   1.077
 4.65 1.25 -0.436 -0.436 -0.436 -0.434 -0.430 12.17719 12.13984-11.53332   1.436
 4.65 1.50 -0.432 -0.432 -0.431 -0.429 -0.425 12.42716 12.38987-11.28333   1.915
 4.65 1.75 -0.426 -0.425 -0.425 -0.423 -0.418 12.67716 12.63990-11.03332   2.554
 4.65 2.00 -0.416 -0.416 -0.415 -0.413 -0.408 12.92717 12.88992-10.78331   3.405
 4.65 2.25 -0.403 -0.402 -0.401 -0.399 -0.392 13.17708 13.13990-10.53328   4.540
 4.65 2.50 -0.382 -0.381 -0.380 -0.377 -0.370 13.42700 13.38987-10.28325   6.054
 4.65 2.75 -0.351 -0.350 -0.349 -0.345 -0.337 13.67698 13.64001-10.03316   8.072
 4.65 3.00 -0.306 -0.305 -0.304 -0.300 -0.290 13.92696 13.89014 -9.78304  10.761
 4.65 3.20 -0.257 -0.256 -0.255 -0.250 -0.240 14.12688 14.09025 -9.58294  13.543
 4.65 3.40 -0.194 -0.194 -0.192 -0.187 -0.176 14.32676 14.29035 -9.38282  17.042
 4.65 3.60 -0.117 -0.117 -0.115 -0.110 -0.098 14.52658 14.49051 -9.18265  21.443
 4.65 3.80 -0.024 -0.023 -0.022 -0.016 -0.004 14.72633 14.69080 -8.98237  26.974
 4.65 4.00  0.085  0.086  0.087  0.093  0.105 14.92598 14.89120 -8.78199  33.923
 4.65 4.20  0.213  0.214  0.216  0.221  0.232 15.12544 15.09178 -8.58143  42.635
 4.65 4.40  0.358  0.358  0.360  0.365  0.375 15.32469 15.29257 -8.38065  53.547
 4.65 4.60  0.517  0.517  0.519  0.523  0.532 15.52366 15.49368 -8.17953  67.188
 4.65 4.80  0.688  0.688  0.689  0.692  0.700 15.72229 15.69515 -7.97802  84.208
 4.65 5.00  0.864  0.865  0.865  0.868  0.874 15.92064 15.89691 -7.77625 105.438
 4.65 5.20  1.046  1.046  1.047  1.049  1.054 16.11851 16.09912 -7.57408 131.811
 4.65 5.40  1.229  1.229  1.230  1.231  1.235 16.31638 16.30133 -7.37192 164.781
 4.65 5.60  1.414  1.414  1.415  1.416  1.420 16.51431 16.50345 -7.16983 206.031
 4.65 5.80  1.603  1.604  1.604  1.605  1.608 16.71246 16.70534 -6.96795 257.750
 4.65 6.00  1.796  1.796  1.796  1.797  1.799 16.91078 16.90704 -6.76624 322.623
 4.65 6.25  2.045  2.045  2.046  2.046  2.048 17.15928 17.15855 -6.51471 428.267
 4.65 6.50  2.300  2.300  2.300  2.301  2.302 17.40807 17.40977 -6.26344 569.420
 4.65 6.75  2.556  2.556  2.556  2.556  2.557 17.65715 17.66068 -6.01243 758.550
 4.65 7.00  2.817  2.817  2.817  2.817  2.818 17.90623 17.91158 -5.761451010.499
 4.65 7.25  3.086  3.086  3.086  3.086  3.087 18.15524 18.16256 -5.510511345.978
 4.65 7.50  3.356  3.356  3.356  3.356  3.357 18.40415 18.41364 -5.259561792.556
 4.65 7.75  3.627  3.627  3.627  3.627  3.628 18.65251 18.66525 -5.007982385.936
 4.65 8.00  3.896  3.896  3.896  3.897  3.897 18.90048 18.91724 -4.755973174.361
 4.70-2.00 -0.449 -0.448 -0.448 -0.447 -0.444  8.87731  8.83973-14.83357   0.030
 4.70-1.50 -0.447 -0.447 -0.447 -0.446 -0.443  9.37731  9.33965-14.33348   0.054
 4.70-1.00 -0.446 -0.446 -0.446 -0.444 -0.441  9.87726  9.83973-13.83327   0.096
 4.70-0.50 -0.445 -0.445 -0.444 -0.443 -0.440 10.37731 10.33965-13.33348   0.171
 4.70 0.00 -0.444 -0.443 -0.443 -0.442 -0.438 10.87726 10.83979-12.83327   0.304
 4.70 0.50 -0.442 -0.442 -0.441 -0.440 -0.436 11.37712 11.33965-12.33339   0.540
 4.70 1.00 -0.440 -0.439 -0.439 -0.438 -0.434 11.87720 11.83979-11.83327   0.960
 4.70 1.25 -0.438 -0.438 -0.437 -0.436 -0.432 12.12716 12.08983-11.58333   1.280
 4.70 1.50 -0.435 -0.435 -0.435 -0.433 -0.429 12.37712 12.33985-11.33339   1.707
 4.70 1.75 -0.432 -0.432 -0.431 -0.429 -0.425 12.62713 12.58985-11.08333   2.276
 4.70 2.00 -0.427 -0.426 -0.426 -0.424 -0.419 12.87714 12.83986-10.83327   3.035
 4.70 2.25 -0.419 -0.418 -0.418 -0.416 -0.410 13.12714 13.08985-10.58328   4.047
 4.70 2.50 -0.406 -0.406 -0.405 -0.403 -0.397 13.37712 13.33985-10.33329   5.396
 4.70 2.75 -0.387 -0.387 -0.386 -0.383 -0.377 13.62708 13.58995-10.08329   7.195
 4.70 3.00 -0.358 -0.358 -0.357 -0.354 -0.346 13.87703 13.84004 -9.83327   9.594
 4.70 3.20 -0.325 -0.325 -0.324 -0.320 -0.312 14.07699 14.04005 -9.63318  12.077
 4.70 3.40 -0.281 -0.280 -0.279 -0.275 -0.266 14.27696 14.24005 -9.43307  15.201
 4.70 3.60 -0.224 -0.223 -0.222 -0.217 -0.206 14.47692 14.44009 -9.23295  19.133
 4.70 3.80 -0.151 -0.150 -0.149 -0.144 -0.132 14.67684 14.64021 -9.03282  24.081
 4.70 4.00 -0.062 -0.061 -0.059 -0.054 -0.041 14.87674 14.84036 -8.83268  30.307
 4.70 4.20  0.044  0.045  0.047  0.052  0.066 15.07658 15.04052 -8.63255  38.137
 4.70 4.40  0.169  0.169  0.171  0.177  0.191 15.27635 15.24072 -8.43242  47.980
 4.70 4.60  0.311  0.311  0.313  0.319  0.332 15.47606 15.44100 -8.23222  60.352
 4.70 4.80  0.469  0.470  0.472  0.477  0.490 15.67568 15.64142 -8.03180  75.885
 4.70 5.00  0.642  0.642  0.644  0.649  0.660 15.87518 15.84198 -7.83121  95.376
 4.70 5.20  0.827  0.828  0.829  0.833  0.843 16.07440 16.04281 -7.63036 119.767
 4.70 5.40  1.021  1.021  1.022  1.025  1.033 16.27335 16.24393 -7.42923 150.260
 4.70 5.60  1.220  1.220  1.221  1.223  1.229 16.47192 16.44548 -7.22764 188.280
 4.70 5.80  1.421  1.421  1.422  1.424  1.428 16.67015 16.64740 -7.02570 235.655
 4.70 6.00  1.622  1.622  1.622  1.624  1.627 16.86817 16.84948 -6.82362 294.739
 4.70 6.25  1.872  1.872  1.872  1.873  1.876 17.11542 17.10228 -6.57087 389.466
 4.70 6.50  2.121  2.121  2.121  2.122  2.123 17.36267 17.35507 -6.31813 514.636
 4.70 6.75  2.371  2.371  2.371  2.372  2.373 17.61046 17.60731 -6.06584 681.166
 4.70 7.00  2.607  2.608  2.608  2.608  2.609 17.85860 17.85920 -5.81389 903.089
 4.70 7.25  2.864  2.864  2.864  2.864  2.865 18.10722 18.11056 -5.562561202.351
 4.70 7.50  3.122  3.122  3.122  3.122  3.123 18.35583 18.36192 -5.311221600.780
 4.70 7.75  3.382  3.382  3.382  3.382  3.382 18.60441 18.61332 -5.059782131.198
 4.70 8.00  3.641  3.641  3.641  3.641  3.641 18.85297 18.86475 -4.808272837.334
 4.75-2.00 -0.449 -0.449 -0.448 -0.447 -0.444  8.82730  8.78972-14.88339   0.027
 4.75-1.50 -0.448 -0.448 -0.447 -0.446 -0.443  9.32715  9.28981-14.38342   0.048
 4.75-1.00 -0.447 -0.447 -0.446 -0.445 -0.442  9.82730  9.78972-13.88339   0.086
 4.75-0.50 -0.445 -0.445 -0.445 -0.443 -0.440 10.32716 10.28981-13.38342   0.152
 4.75 0.00 -0.443 -0.443 -0.443 -0.441 -0.438 10.82724 10.78979-12.88339   0.271
 4.75 0.50 -0.441 -0.441 -0.440 -0.439 -0.435 11.32716 11.28981-12.38342   0.481
 4.75 1.00 -0.438 -0.438 -0.438 -0.436 -0.432 11.82724 11.78979-11.88339   0.856
 4.75 1.25 -0.437 -0.437 -0.436 -0.434 -0.430 12.07720 12.03980-11.63341   1.141
 4.75 1.50 -0.435 -0.434 -0.434 -0.432 -0.428 12.32716 12.28981-11.38342   1.521
 4.75 1.75 -0.432 -0.432 -0.431 -0.430 -0.425 12.57717 12.53984-11.13341   2.028
 4.75 2.00 -0.429 -0.429 -0.428 -0.426 -0.421 12.82718 12.78986-10.88339   2.705
 4.75 2.25 -0.424 -0.424 -0.423 -0.421 -0.416 13.07717 13.03984-10.63336   3.607
 4.75 2.50 -0.417 -0.417 -0.416 -0.414 -0.409 13.32715 13.28981-10.38331   4.810
 4.75 2.75 -0.406 -0.406 -0.405 -0.403 -0.398 13.57714 13.53991-10.13319   6.414
 4.75 3.00 -0.389 -0.389 -0.389 -0.386 -0.380 13.82711 13.79000 -9.88306   8.552
 4.75 3.20 -0.369 -0.369 -0.368 -0.366 -0.359 14.02705 13.99002 -9.68308  10.765
 4.75 3.40 -0.342 -0.341 -0.341 -0.338 -0.330 14.22698 14.19003 -9.48310  13.551
 4.75 3.60 -0.304 -0.303 -0.302 -0.299 -0.291 14.42693 14.39007 -9.28311  17.057
 4.75 3.80 -0.253 -0.253 -0.252 -0.248 -0.239 14.62689 14.59014 -9.08309  21.470
 4.75 4.00 -0.189 -0.188 -0.187 -0.183 -0.172 14.82685 14.79022 -8.88306  27.025
 4.75 4.20 -0.107 -0.106 -0.105 -0.100 -0.088 15.02681 14.99023 -8.68297  34.015
 4.75 4.40 -0.007 -0.007 -0.005  0.000  0.012 15.22677 15.19025 -8.48286  42.811
 4.75 4.60  0.109  0.110  0.111  0.117  0.131 15.42669 15.39033 -8.28273  53.878
 4.75 4.80  0.244  0.245  0.247  0.252  0.267 15.62654 15.59053 -8.08258  67.799
 4.75 5.00  0.395  0.396  0.398  0.403  0.418 15.82633 15.79078 -7.88240  85.307
 4.75 5.20  0.561  0.562  0.563  0.569  0.583 16.02608 15.99105 -7.68213 107.311
 4.75 5.40  0.739  0.740  0.741  0.746  0.759 16.22573 16.19139 -7.48176 134.950
 4.75 5.60  0.927  0.928  0.929  0.933  0.944 16.42526 16.39187 -7.28123 169.644
 4.75 5.80  1.123  1.124  1.125  1.128  1.137 16.62461 16.59261 -7.08044 213.114
 4.75 6.00  1.325  1.326  1.327  1.329  1.337 16.82374 16.79358 -6.87943 267.539
 4.75 6.25  1.584  1.584  1.585  1.587  1.593 17.07207 17.04533 -6.62774 354.867
 4.75 6.50  1.847  1.847  1.847  1.849  1.853 17.31994 17.29754 -6.37562 469.962
 4.75 6.75  2.109  2.109  2.109  2.110  2.113 17.56719 17.55043 -6.12280 620.980
 4.75 7.00  2.356  2.356  2.356  2.357  2.359 17.81445 17.80332 -5.86999 820.527
 4.75 7.25  2.610  2.610  2.610  2.611  2.612 18.06177 18.05604 -5.617251084.386
 4.75 7.50  2.863  2.863  2.863  2.864  2.864 18.30920 18.30857 -5.364621433.550
 4.75 7.75  3.115  3.115  3.115  3.115  3.116 18.55713 18.56065 -5.112501903.700
 4.75 8.00  3.365  3.365  3.365  3.365  3.366 18.80543 18.81238 -4.860752535.913
 4.80-2.00 -0.448 -0.448 -0.448 -0.447 -0.444  8.77728  8.73973-14.93330   0.024
 4.80-1.50 -0.448 -0.448 -0.447 -0.446 -0.443  9.27715  9.23980-14.43344   0.043
 4.80-1.00 -0.447 -0.447 -0.447 -0.445 -0.442  9.77728  9.73973-13.93330   0.076
 4.80-0.50 -0.446 -0.446 -0.445 -0.444 -0.441 10.27715 10.23980-13.43344   0.136
 4.80 0.00 -0.444 -0.444 -0.444 -0.443 -0.439 10.77728 10.73973-12.93330   0.241
 4.80 0.50 -0.442 -0.442 -0.442 -0.441 -0.437 11.27715 11.23980-12.43344   0.429
 4.80 1.00 -0.439 -0.439 -0.439 -0.437 -0.433 11.77721 11.73981-11.93330   0.763
 4.80 1.25 -0.437 -0.437 -0.437 -0.435 -0.431 12.02718 11.98981-11.68331   1.017
 4.80 1.50 -0.435 -0.435 -0.434 -0.433 -0.428 12.27715 12.23980-11.43333   1.356
 4.80 1.75 -0.432 -0.432 -0.431 -0.430 -0.425 12.52718 12.48981-11.18331   1.808
 4.80 2.00 -0.429 -0.428 -0.428 -0.426 -0.421 12.77721 12.73981-10.93330   2.411
 4.80 2.25 -0.424 -0.424 -0.424 -0.422 -0.416 13.02718 12.98981-10.68331   3.215
 4.80 2.50 -0.419 -0.419 -0.418 -0.416 -0.410 13.27715 13.23980-10.43333   4.287
 4.80 2.75 -0.412 -0.411 -0.411 -0.409 -0.403 13.52714 13.48988-10.18332   5.716
 4.80 3.00 -0.401 -0.401 -0.401 -0.398 -0.392 13.77714 13.73997 -9.93330   7.622
 4.80 3.20 -0.390 -0.389 -0.389 -0.386 -0.380 13.97705 13.94000 -9.73328   9.595
 4.80 3.40 -0.373 -0.373 -0.372 -0.370 -0.363 14.17696 14.14003 -9.53324  12.078
 4.80 3.60 -0.350 -0.350 -0.349 -0.346 -0.339 14.37692 14.34007 -9.33315  15.204
 4.80 3.80 -0.318 -0.318 -0.317 -0.314 -0.306 14.57692 14.54010 -9.13304  19.138
 4.80 4.00 -0.275 -0.275 -0.274 -0.271 -0.263 14.77692 14.74013 -8.93293  24.091
 4.80 4.20 -0.219 -0.218 -0.217 -0.214 -0.205 14.97683 14.94019 -8.73295  30.324
 4.80 4.40 -0.147 -0.147 -0.146 -0.142 -0.132 15.17674 15.14026 -8.53296  38.168
 4.80 4.60 -0.058 -0.058 -0.057 -0.052 -0.041 15.37668 15.34034 -8.33289  48.041
 4.80 4.80  0.048  0.048  0.050  0.054  0.066 15.57665 15.54043 -8.13272  60.466
 4.80 5.00  0.172  0.173  0.174  0.179  0.192 15.77663 15.74052 -7.93256  76.102
 4.80 5.20  0.315  0.315  0.317  0.322  0.335 15.97650 15.94062 -7.73249  95.769
 4.80 5.40  0.473  0.473  0.475  0.480  0.493 16.17633 16.14074 -7.53242 120.506
 4.80 5.60  0.643  0.644  0.645  0.650  0.663 16.37614 16.34092 -7.33224 151.616
 4.80 5.80  0.825  0.825  0.827  0.831  0.842 16.57590 16.54123 -7.13189 190.724
 4.80 6.00  1.015  1.015  1.016  1.020  1.030 16.77561 16.74163 -6.93144 239.867
 4.80 6.25  1.260  1.260  1.261  1.264  1.272 17.02503 16.99222 -6.68083 319.246
 4.80 6.50  1.511  1.512  1.512  1.515  1.521 17.27416 17.24304 -6.43004 424.510
 4.80 6.75  1.771  1.771  1.771  1.773  1.778 17.52279 17.49454 -6.17860 563.637
 4.80 7.00  2.033  2.033  2.034  2.035  2.039 17.77093 17.74656 -5.92665 747.189
 4.80 7.25  2.293  2.293  2.293  2.294  2.297 18.01831 17.99926 -5.67400 988.099
 4.80 7.50  2.556  2.556  2.557  2.557  2.559 18.26553 18.25212 -5.421131305.518
 4.80 7.75  2.813  2.813  2.814  2.814  2.815 18.51268 18.50505 -5.168171724.151
 4.80 8.00  3.066  3.067  3.067  3.067  3.068 18.75974 18.75808 -4.915072275.686
 4.85-2.00 -0.448 -0.448 -0.448 -0.447 -0.444  8.72730  8.68975-14.98339   0.021
 4.85-1.50 -0.447 -0.447 -0.447 -0.446 -0.443  9.22737  9.18977-14.48347   0.038
 4.85-1.00 -0.447 -0.446 -0.446 -0.445 -0.442  9.72730  9.68975-13.98339   0.068
 4.85-0.50 -0.446 -0.445 -0.445 -0.444 -0.441 10.22712 10.18977-13.48347   0.121
 4.85 0.00 -0.445 -0.444 -0.444 -0.443 -0.440 10.72730 10.68975-12.98339   0.215
 4.85 0.50 -0.443 -0.443 -0.443 -0.441 -0.438 11.22711 11.18977-12.48347   0.382
 4.85 1.00 -0.441 -0.441 -0.441 -0.439 -0.435 11.72722 11.68975-11.98338   0.680
 4.85 1.25 -0.440 -0.440 -0.439 -0.438 -0.434 11.97717 11.93976-11.73335   0.906
 4.85 1.50 -0.438 -0.438 -0.437 -0.436 -0.432 12.22712 12.18977-11.48333   1.208
 4.85 1.75 -0.436 -0.435 -0.435 -0.433 -0.429 12.47717 12.43981-11.23336   1.611
 4.85 2.00 -0.433 -0.432 -0.432 -0.430 -0.426 12.72722 12.68984-10.98339   2.149
 4.85 2.25 -0.428 -0.428 -0.428 -0.426 -0.421 12.97717 12.93981-10.73336   2.866
 4.85 2.50 -0.423 -0.422 -0.422 -0.420 -0.415 13.22712 13.18977-10.48333   3.821
 4.85 2.75 -0.415 -0.415 -0.414 -0.412 -0.407 13.47713 13.43985-10.23336   5.095
 4.85 3.00 -0.406 -0.406 -0.405 -0.403 -0.397 13.72713 13.68993 -9.98339   6.794
 4.85 3.20 -0.397 -0.396 -0.396 -0.393 -0.387 13.92713 13.88999 -9.78332   8.552
 4.85 3.40 -0.385 -0.385 -0.384 -0.382 -0.375 14.12712 14.09003 -9.58324  10.766
 4.85 3.60 -0.369 -0.369 -0.369 -0.366 -0.359 14.32709 14.29007 -9.38315  13.552
 4.85 3.80 -0.349 -0.349 -0.348 -0.345 -0.338 14.52703 14.49009 -9.18306  17.059
 4.85 4.00 -0.322 -0.321 -0.320 -0.318 -0.310 14.72697 14.69011 -8.98297  21.474
 4.85 4.20 -0.284 -0.284 -0.283 -0.280 -0.272 14.92693 14.89009 -8.78301  27.030
 4.85 4.40 -0.236 -0.236 -0.235 -0.232 -0.223 15.12688 15.09006 -8.58305  34.024
 4.85 4.60 -0.173 -0.173 -0.172 -0.169 -0.160 15.32683 15.29012 -8.38307  42.826
 4.85 4.80 -0.095 -0.095 -0.094 -0.090 -0.080 15.52678 15.49024 -8.18304  53.906
 4.85 5.00 -0.001  0.000  0.000  0.004  0.014 15.72673 15.69037 -7.98297  67.851
 4.85 5.20  0.113  0.113  0.114  0.118  0.129 15.92657 15.89047 -7.78280  85.395
 4.85 5.40  0.244  0.245  0.246  0.250  0.261 16.12642 16.09056 -7.58263 107.469
 4.85 5.60  0.393  0.393  0.394  0.398  0.409 16.32631 16.29067 -7.38246 135.245
 4.85 5.80  0.557  0.557  0.558  0.562  0.573 16.52623 16.49082 -7.18230 170.191
 4.85 6.00  0.733  0.733  0.734  0.738  0.748 16.72616 16.69099 -6.98213 214.152
 4.85 6.25  0.965  0.966  0.966  0.970  0.979 16.97579 16.94130 -6.73186 285.322
 4.85 6.50  1.205  1.205  1.206  1.209  1.217 17.22531 17.19173 -6.48149 380.011
 4.85 6.75  1.451  1.452  1.452  1.455  1.461 17.47478 17.44234 -6.23091 505.851
 4.85 7.00  1.706  1.706  1.707  1.709  1.714 17.72411 17.69320 -5.98005 672.845
 4.85 7.25  1.959  1.959  1.959  1.961  1.965 17.97287 17.94445 -5.72873 893.709
 4.85 7.50  2.219  2.219  2.220  2.221  2.224 18.22116 18.19618 -5.476911185.277
 4.85 7.75  2.479  2.479  2.480  2.480  2.483 18.46889 18.44860 -5.224461568.760
 4.85 8.00  2.741  2.741  2.741  2.741  2.743 18.71609 18.70165 -4.971432072.446
 4.90-2.00 -0.449 -0.449 -0.449 -0.448 -0.445  8.67733  8.63969-15.03344   0.019
 4.90-1.50 -0.448 -0.448 -0.448 -0.447 -0.444  9.17725  9.13956-14.53343   0.034
 4.90-1.00 -0.447 -0.447 -0.446 -0.445 -0.443  9.67733  9.63979-14.03344   0.061
 4.90-0.50 -0.446 -0.445 -0.445 -0.444 -0.441 10.17725 10.13956-13.53343   0.108
 4.90 0.00 -0.444 -0.444 -0.444 -0.443 -0.439 10.67724 10.63978-13.03339   0.192
 4.90 0.50 -0.443 -0.442 -0.442 -0.441 -0.437 11.17725 11.13988-12.53343   0.341
 4.90 1.00 -0.441 -0.441 -0.440 -0.439 -0.435 11.67724 11.63979-12.03339   0.606
 4.90 1.25 -0.440 -0.440 -0.439 -0.438 -0.434 11.92725 11.88983-11.78341   0.808
 4.90 1.50 -0.439 -0.439 -0.438 -0.437 -0.433 12.17725 12.13988-11.53343   1.077
 4.90 1.75 -0.437 -0.437 -0.437 -0.435 -0.431 12.42725 12.38983-11.28339   1.436
 4.90 2.00 -0.436 -0.435 -0.435 -0.433 -0.429 12.67724 12.63979-11.03334   1.915
 4.90 2.25 -0.433 -0.433 -0.432 -0.430 -0.426 12.92725 12.88983-10.78331   2.554
 4.90 2.50 -0.429 -0.429 -0.428 -0.427 -0.422 13.17725 13.13988-10.53328   3.406
 4.90 2.75 -0.423 -0.423 -0.422 -0.421 -0.416 13.42721 13.38988-10.28326   4.541
 4.90 3.00 -0.415 -0.415 -0.415 -0.413 -0.408 13.67715 13.63988-10.03325   6.055
 4.90 3.20 -0.407 -0.406 -0.406 -0.404 -0.398 13.87707 13.83988 -9.83326   7.622
 4.90 3.40 -0.396 -0.396 -0.395 -0.393 -0.387 14.07700 14.03988 -9.63327   9.595
 4.90 3.60 -0.382 -0.382 -0.381 -0.379 -0.373 14.27698 14.23989 -9.43325  12.079
 4.90 3.80 -0.365 -0.365 -0.364 -0.362 -0.356 14.47702 14.43993 -9.23318  15.206
 4.90 4.00 -0.344 -0.344 -0.343 -0.341 -0.334 14.67706 14.63998 -9.03311  19.141
 4.90 4.20 -0.317 -0.317 -0.316 -0.314 -0.306 14.87703 14.84007 -8.83312  24.094
 4.90 4.40 -0.283 -0.283 -0.282 -0.279 -0.271 15.07699 15.04015 -8.63313  30.329
 4.90 4.60 -0.239 -0.238 -0.238 -0.235 -0.226 15.27692 15.24021 -8.43308  38.176
 4.90 4.80 -0.183 -0.182 -0.181 -0.178 -0.170 15.47685 15.44025 -8.23298  48.054
 4.90 5.00 -0.113 -0.113 -0.112 -0.109 -0.100 15.67678 15.64028 -8.03287  60.486
 4.90 5.20 -0.027 -0.027 -0.026 -0.022 -0.013 15.87674 15.84037 -7.83280  76.131
 4.90 5.40  0.075  0.076  0.077  0.080  0.090 16.07669 16.04046 -7.63273  95.818
 4.90 5.60  0.197  0.197  0.198  0.201  0.211 16.27662 16.24056 -7.43264 120.594
 4.90 5.80  0.337  0.337  0.338  0.341  0.351 16.47649 16.44066 -7.23253 151.770
 4.90 6.00  0.492  0.492  0.493  0.497  0.505 16.67633 16.64078 -7.03241 190.996
 4.90 6.25  0.707  0.708  0.709  0.712  0.720 16.92607 16.89094 -6.78220 254.550
 4.90 6.50  0.938  0.938  0.939  0.942  0.949 17.17580 17.14114 -6.53195 339.198
 4.90 6.75  1.170  1.171  1.171  1.174  1.180 17.42553 17.39149 -6.28162 451.906
 4.90 7.00  1.419  1.419  1.420  1.422  1.427 17.67523 17.64197 -6.03119 601.873
 4.90 7.25  1.667  1.667  1.667  1.669  1.673 17.92463 17.89255 -5.78059 801.124
 4.90 7.50  1.920  1.920  1.920  1.922  1.925 18.17377 18.14333 -5.529741065.512
 4.90 7.75  2.172  2.172  2.172  2.173  2.176 18.42254 18.39469 -5.278411415.184
 4.90 8.00  2.429  2.429  2.429  2.430  2.432 18.67099 18.64650 -5.026691877.380
 4.95-2.00 -0.450 -0.450 -0.450 -0.449 -0.447  8.62726  8.58973-15.08344   0.017
 4.95-1.50 -0.449 -0.449 -0.449 -0.448 -0.446  9.12710  9.08955-14.58353   0.030
 4.95-1.00 -0.448 -0.448 -0.448 -0.447 -0.445  9.62726  9.58973-14.08344   0.054
 4.95-0.50 -0.447 -0.447 -0.447 -0.446 -0.443 10.12711 10.08955-13.58353   0.096
 4.95 0.00 -0.445 -0.445 -0.445 -0.444 -0.441 10.62726 10.58973-13.08339   0.171
 4.95 0.50 -0.443 -0.443 -0.443 -0.441 -0.438 11.12710 11.08955-12.58336   0.304
 4.95 1.00 -0.441 -0.441 -0.440 -0.439 -0.435 11.62726 11.58973-12.08339   0.540
 4.95 1.25 -0.439 -0.439 -0.439 -0.438 -0.434 11.87718 11.83982-11.83337   0.720
 4.95 1.50 -0.438 -0.438 -0.438 -0.436 -0.432 12.12710 12.08991-11.58336   0.960
 4.95 1.75 -0.437 -0.436 -0.436 -0.435 -0.431 12.37718 12.33987-11.33335   1.280
 4.95 2.00 -0.435 -0.435 -0.434 -0.433 -0.429 12.62726 12.58984-11.08334   1.707
 4.95 2.25 -0.433 -0.433 -0.432 -0.431 -0.427 12.87718 12.83987-10.83335   2.276
 4.95 2.50 -0.431 -0.430 -0.430 -0.428 -0.424 13.12711 13.08991-10.58336   3.035
 4.95 2.75 -0.427 -0.427 -0.426 -0.425 -0.420 13.37713 13.33987-10.33332   4.047
 4.95 3.00 -0.422 -0.422 -0.421 -0.420 -0.415 13.62716 13.58984-10.08328   5.397
 4.95 3.20 -0.416 -0.416 -0.416 -0.414 -0.409 13.82714 13.78987 -9.88325   6.794
 4.95 3.40 -0.409 -0.408 -0.408 -0.406 -0.401 14.02712 13.98989 -9.68321   8.553
 4.95 3.60 -0.398 -0.398 -0.397 -0.395 -0.390 14.22710 14.18992 -9.48319  10.767
 4.95 3.80 -0.384 -0.384 -0.383 -0.381 -0.376 14.42708 14.38994 -9.28318  13.553
 4.95 4.00 -0.366 -0.366 -0.366 -0.364 -0.358 14.62706 14.58995 -9.08318  17.061
 4.95 4.20 -0.343 -0.343 -0.343 -0.340 -0.334 14.82695 14.78993 -8.88312  21.476
 4.95 4.40 -0.315 -0.315 -0.314 -0.312 -0.305 15.02684 14.98992 -8.68306  27.033
 4.95 4.60 -0.280 -0.279 -0.279 -0.276 -0.270 15.22680 15.18996 -8.48302  34.029
 4.95 4.80 -0.236 -0.236 -0.235 -0.232 -0.225 15.42682 15.39007 -8.28299  42.835
 4.95 5.00 -0.182 -0.182 -0.181 -0.178 -0.170 15.62685 15.59017 -8.08297  53.919
 4.95 5.20 -0.116 -0.115 -0.115 -0.112 -0.103 15.82685 15.79021 -7.88293  67.866
 4.95 5.40 -0.035 -0.035 -0.034 -0.031 -0.022 16.02681 15.99024 -7.68289  85.420
 4.95 5.60  0.060  0.061  0.061  0.065  0.073 16.22671 16.19033 -7.48280 107.512
 4.95 5.80  0.175  0.175  0.176  0.179  0.188 16.42658 16.39048 -7.28268 135.316
 4.95 6.00  0.306  0.307  0.308  0.310  0.319 16.62644 16.59062 -7.08255 170.306
 4.95 6.25  0.497  0.497  0.498  0.501  0.508 16.87629 16.84079 -6.83238 226.997
 4.95 6.50  0.709  0.709  0.710  0.712  0.718 17.12613 17.09096 -6.58220 302.529
 4.95 6.75  0.926  0.927  0.927  0.929  0.935 17.37595 17.34121 -6.33198 403.168
 4.95 7.00  1.167  1.167  1.167  1.169  1.174 17.62572 17.59151 -6.08171 537.211
 4.95 7.25  1.411  1.412  1.412  1.413  1.418 17.87534 17.84189 -5.83135 715.600
 4.95 7.50  1.661  1.661  1.661  1.662  1.666 18.12483 18.09237 -5.58087 952.869
 4.95 7.75  1.909  1.909  1.909  1.910  1.913 18.37420 18.34307 -5.330161267.979
 4.95 8.00  2.161  2.161  2.161  2.162  2.164 18.62346 18.59395 -5.079251686.348
 5.00-2.00 -0.450 -0.449 -0.449 -0.449 -0.447  8.57726  8.53970-15.13342   0.015
 5.00-1.50 -0.449 -0.449 -0.449 -0.449 -0.447  9.07737  9.03981-14.63339   0.027
 5.00-1.00 -0.449 -0.449 -0.449 -0.448 -0.446  9.57726  9.53970-14.13342   0.048
 5.00-0.50 -0.449 -0.448 -0.448 -0.448 -0.446 10.07737 10.03981-13.63339   0.086
 5.00 0.00 -0.448 -0.447 -0.447 -0.447 -0.445 10.57726 10.53970-13.13342   0.152
 5.00 0.50 -0.446 -0.446 -0.446 -0.445 -0.442 11.07737 11.03981-12.63339   0.271
 5.00 1.00 -0.444 -0.443 -0.443 -0.442 -0.439 11.57726 11.53983-12.13342   0.481
 5.00 1.25 -0.442 -0.442 -0.442 -0.441 -0.437 11.82732 11.78982-11.88341   0.642
 5.00 1.50 -0.440 -0.440 -0.440 -0.439 -0.435 12.07737 12.03981-11.63339   0.856
 5.00 1.75 -0.438 -0.438 -0.438 -0.437 -0.433 12.32734 12.28982-11.38338   1.141
 5.00 2.00 -0.436 -0.436 -0.435 -0.434 -0.430 12.57726 12.53983-11.13336   1.521
 5.00 2.25 -0.434 -0.434 -0.433 -0.432 -0.428 12.82713 12.78982-10.88338   2.028
 5.00 2.50 -0.431 -0.431 -0.430 -0.429 -0.424 13.07701 13.03981-10.63339   2.705
 5.00 2.75 -0.428 -0.428 -0.427 -0.426 -0.421 13.32708 13.28982-10.38335   3.607
 5.00 3.00 -0.424 -0.424 -0.423 -0.421 -0.417 13.57715 13.53983-10.13330   4.811
 5.00 3.20 -0.420 -0.420 -0.419 -0.417 -0.412 13.77709 13.73982 -9.93326   6.056
 5.00 3.40 -0.415 -0.414 -0.414 -0.412 -0.407 13.97703 13.93981 -9.73322   7.623
 5.00 3.60 -0.407 -0.407 -0.407 -0.405 -0.399 14.17701 14.13983 -9.53319   9.596
 5.00 3.80 -0.398 -0.398 -0.397 -0.395 -0.390 14.37702 14.33988 -9.33318  12.080
 5.00 4.00 -0.385 -0.385 -0.384 -0.382 -0.377 14.57703 14.53995 -9.13318  15.207
 5.00 4.20 -0.367 -0.367 -0.367 -0.365 -0.359 14.77703 14.74006 -8.93319  19.142
 5.00 4.40 -0.345 -0.345 -0.344 -0.342 -0.336 14.97701 14.94016 -8.73320  24.096
 5.00 4.60 -0.316 -0.315 -0.315 -0.313 -0.307 15.17699 15.14021 -8.53316  30.332
 5.00 4.80 -0.279 -0.279 -0.278 -0.276 -0.270 15.37696 15.34021 -8.33308  38.182
 5.00 5.00 -0.235 -0.234 -0.234 -0.232 -0.225 15.57692 15.54020 -8.13300  48.063
 5.00 5.20 -0.179 -0.179 -0.179 -0.176 -0.170 15.77681 15.74020 -7.93293  60.497
 5.00 5.40 -0.113 -0.113 -0.112 -0.110 -0.103 15.97670 15.94021 -7.73287  76.146
 5.00 5.60 -0.034 -0.033 -0.033 -0.030 -0.023 16.17663 16.14026 -7.53279  95.842
 5.00 5.80  0.060  0.060  0.061  0.064  0.071 16.37660 16.34035 -7.33272 120.632
 5.00 6.00  0.171  0.172  0.172  0.175  0.182 16.57657 16.54045 -7.13265 151.832
 5.00 6.25  0.336  0.336  0.337  0.339  0.346 16.82643 16.79053 -6.88256 202.386
 5.00 6.50  0.525  0.525  0.526  0.528  0.534 17.07628 17.04060 -6.63246 269.755
 5.00 6.75  0.734  0.734  0.734  0.736  0.742 17.32614 17.29090 -6.38222 359.539
 5.00 7.00  0.951  0.951  0.952  0.954  0.959 17.57600 17.54121 -6.13194 479.170
 5.00 7.25  1.189  1.189  1.190  1.191  1.195 17.82580 17.79150 -5.88166 638.478
 5.00 7.50  1.434  1.434  1.435  1.436  1.439 18.07555 18.04179 -5.63134 850.569
 5.00 7.75  1.680  1.680  1.680  1.681  1.684 18.32510 18.29225 -5.380901132.758
 5.00 8.00  1.929  1.929  1.929  1.930  1.932 18.57449 18.54283 -5.130361508.142
 5.05-2.00 -0.448 -0.448 -0.448 -0.447 -0.446  8.52724  8.48968-15.18343   0.014
 5.05-1.50 -0.448 -0.448 -0.448 -0.447 -0.446  9.02735  8.98967-14.68340   0.024
 5.05-1.00 -0.448 -0.448 -0.448 -0.447 -0.446  9.52724  9.48968-14.18343   0.043
 5.05-0.50 -0.448 -0.448 -0.448 -0.447 -0.446 10.02735  9.98972-13.68340   0.076
 5.05 0.00 -0.448 -0.447 -0.447 -0.447 -0.445 10.52724 10.48968-13.18343   0.136
 5.05 0.50 -0.447 -0.447 -0.447 -0.446 -0.444 11.02735 10.98972-12.68340   0.241
 5.05 1.00 -0.446 -0.446 -0.446 -0.445 -0.443 11.52724 11.48982-12.18343   0.429
 5.05 1.25 -0.445 -0.445 -0.445 -0.444 -0.442 11.77730 11.73977-11.93342   0.572
 5.05 1.50 -0.444 -0.444 -0.444 -0.443 -0.441 12.02735 11.98972-11.68340   0.763
 5.05 1.75 -0.443 -0.443 -0.442 -0.441 -0.439 12.27730 12.23977-11.43338   1.017
 5.05 2.00 -0.441 -0.441 -0.441 -0.440 -0.437 12.52724 12.48982-11.18336   1.356
 5.05 2.25 -0.439 -0.439 -0.438 -0.437 -0.434 12.77730 12.73979-10.93338   1.808
 5.05 2.50 -0.436 -0.436 -0.435 -0.434 -0.431 13.02735 12.98976-10.68340   2.411
 5.05 2.75 -0.433 -0.432 -0.432 -0.431 -0.427 13.27732 13.23979-10.43335   3.215
 5.05 3.00 -0.428 -0.428 -0.428 -0.426 -0.422 13.52724 13.48982-10.18330   4.288
 5.05 3.20 -0.425 -0.424 -0.424 -0.422 -0.418 13.72712 13.68983 -9.98334   5.398
 5.05 3.40 -0.420 -0.420 -0.419 -0.418 -0.413 13.92700 13.88984 -9.78338   6.794
 5.05 3.60 -0.414 -0.414 -0.413 -0.412 -0.406 14.12698 14.08987 -9.58337   8.553
 5.05 3.80 -0.407 -0.407 -0.406 -0.404 -0.399 14.32705 14.28992 -9.38330  10.767
 5.05 4.00 -0.397 -0.397 -0.396 -0.394 -0.389 14.52711 14.48996 -9.18323  13.555
 5.05 4.20 -0.385 -0.384 -0.384 -0.382 -0.376 14.72705 14.68997 -8.98321  17.063
 5.05 4.40 -0.368 -0.368 -0.367 -0.365 -0.359 14.92698 14.88998 -8.78320  21.479
 5.05 4.60 -0.345 -0.345 -0.345 -0.343 -0.336 15.12695 15.09001 -8.58316  27.037
 5.05 4.80 -0.316 -0.316 -0.316 -0.314 -0.308 15.32697 15.29005 -8.38309  34.034
 5.05 5.00 -0.280 -0.280 -0.279 -0.277 -0.271 15.52699 15.49010 -8.18303  42.842
 5.05 5.20 -0.234 -0.233 -0.233 -0.231 -0.225 15.72698 15.69014 -7.98301  53.926
 5.05 5.40 -0.178 -0.178 -0.177 -0.175 -0.169 15.92696 15.89018 -7.78299  67.877
 5.05 5.60 -0.110 -0.110 -0.110 -0.108 -0.102 16.12690 16.09023 -7.58294  85.436
 5.05 5.80 -0.029 -0.029 -0.029 -0.027 -0.021 16.32681 16.29030 -7.38285 107.538
 5.05 6.00  0.065  0.065  0.065  0.067  0.073 16.52673 16.49038 -7.18277 135.356
 5.05 6.25  0.208  0.208  0.209  0.210  0.216 16.77663 16.74051 -6.93266 180.431
 5.05 6.50  0.377  0.377  0.377  0.379  0.385 17.02653 16.99065 -6.68256 240.507
 5.05 6.75  0.570  0.571  0.571  0.573  0.578 17.27631 17.24079 -6.43238 320.581
 5.05 7.00  0.770  0.770  0.770  0.772  0.777 17.52608 17.49094 -6.18217 427.295
 5.05 7.25  0.998  0.998  0.998  1.000  1.004 17.77590 17.74117 -5.93196 569.441
 5.05 7.50  1.236  1.236  1.237  1.238  1.241 18.02572 17.99145 -5.68173 758.766
 5.05 7.75  1.478  1.478  1.478  1.479  1.482 18.27542 18.24179 -5.431391010.861
 5.05 8.00  1.724  1.724  1.725  1.725  1.727 18.52505 18.49220 -5.180981346.494
 5.10-2.00 -0.445 -0.445 -0.445 -0.444 -0.443  8.47727  8.43965-15.23344   0.012
 5.10-1.50 -0.445 -0.445 -0.445 -0.444 -0.443  8.97727  8.93967-14.73353   0.021
 5.10-1.00 -0.445 -0.445 -0.445 -0.444 -0.443  9.47727  9.43981-14.23344   0.038
 5.10-0.50 -0.445 -0.445 -0.445 -0.444 -0.443  9.97727  9.93972-13.73353   0.068
 5.10 0.00 -0.445 -0.445 -0.445 -0.444 -0.443 10.47727 10.43981-13.23344   0.121
 5.10 0.50 -0.445 -0.445 -0.445 -0.444 -0.443 10.97722 10.93972-12.73353   0.215
 5.10 1.00 -0.444 -0.444 -0.444 -0.444 -0.442 11.47727 11.43981-12.23344   0.382
 5.10 1.25 -0.444 -0.444 -0.444 -0.443 -0.442 11.72724 11.68976-11.98349   0.510
 5.10 1.50 -0.444 -0.444 -0.443 -0.443 -0.441 11.97722 11.93972-11.73353   0.680
 5.10 1.75 -0.443 -0.443 -0.443 -0.442 -0.441 12.22724 12.18976-11.48345   0.907
 5.10 2.00 -0.442 -0.442 -0.442 -0.441 -0.440 12.47727 12.43981-11.23337   1.209
 5.10 2.25 -0.441 -0.441 -0.441 -0.440 -0.438 12.72722 12.68979-10.98332   1.612
 5.10 2.50 -0.440 -0.440 -0.439 -0.439 -0.437 12.97717 12.93977-10.73330   2.149
 5.10 2.75 -0.438 -0.438 -0.437 -0.437 -0.434 13.22722 13.18979-10.48333   2.865
 5.10 3.00 -0.435 -0.435 -0.435 -0.434 -0.431 13.47727 13.43981-10.23337   3.821
 5.10 3.20 -0.433 -0.432 -0.432 -0.431 -0.428 13.67721 13.63981-10.03334   4.810
 5.10 3.40 -0.429 -0.429 -0.428 -0.427 -0.424 13.87716 13.83982 -9.83331   6.056
 5.10 3.60 -0.424 -0.424 -0.424 -0.423 -0.419 14.07713 14.03985 -9.63328   7.624
 5.10 3.80 -0.419 -0.418 -0.418 -0.417 -0.412 14.27713 14.23991 -9.43325   9.597
 5.10 4.00 -0.411 -0.411 -0.410 -0.409 -0.404 14.47712 14.43996 -9.23322  12.081
 5.10 4.20 -0.401 -0.401 -0.400 -0.399 -0.394 14.67709 14.63997 -9.03325  15.208
 5.10 4.40 -0.388 -0.388 -0.387 -0.386 -0.380 14.87706 14.83997 -8.83328  19.144
 5.10 4.60 -0.371 -0.371 -0.370 -0.368 -0.363 15.07703 15.04000 -8.63325  24.099
 5.10 4.80 -0.349 -0.349 -0.348 -0.346 -0.340 15.27700 15.24006 -8.43316  30.336
 5.10 5.00 -0.319 -0.319 -0.319 -0.317 -0.310 15.47698 15.44012 -8.23307  38.188
 5.10 5.20 -0.282 -0.282 -0.281 -0.279 -0.273 15.67693 15.64014 -8.03307  48.068
 5.10 5.40 -0.235 -0.235 -0.234 -0.232 -0.226 15.87688 15.84016 -7.83306  60.505
 5.10 5.60 -0.177 -0.177 -0.176 -0.174 -0.168 16.07682 16.04018 -7.63302  76.159
 5.10 5.80 -0.107 -0.107 -0.106 -0.105 -0.099 16.27676 16.24022 -7.43294  95.862
 5.10 6.00 -0.025 -0.024 -0.024 -0.022 -0.017 16.47669 16.44028 -7.23284 120.663
 5.10 6.25  0.100  0.100  0.100  0.102  0.107 16.72659 16.69038 -6.98272 160.858
 5.10 6.50  0.249  0.249  0.250  0.251  0.256 16.97649 16.94052 -6.73259 214.431
 5.10 6.75  0.426  0.426  0.426  0.428  0.432 17.22638 17.19071 -6.48246 285.836
 5.10 7.00  0.617  0.617  0.617  0.619  0.623 17.47625 17.44091 -6.23233 380.994
 5.10 7.25  0.831  0.831  0.831  0.833  0.836 17.72606 17.69106 -5.98212 507.782
 5.10 7.50  1.062  1.063  1.063  1.064  1.067 17.97585 17.94121 -5.73189 676.696
 5.10 7.75  1.299  1.299  1.300  1.300  1.303 18.22562 18.19149 -5.48164 901.697
 5.10 8.00  1.542  1.542  1.542  1.543  1.545 18.47538 18.44185 -5.231361201.379
 5.15-2.00 -0.440 -0.440 -0.439 -0.439 -0.438  8.42732  8.38970-15.28341   0.011
 5.15-1.50 -0.440 -0.440 -0.439 -0.439 -0.438  8.92727  8.88969-14.78357   0.019
 5.15-1.00 -0.440 -0.440 -0.439 -0.439 -0.438  9.42732  9.38970-14.28341   0.034
 5.15-0.50 -0.440 -0.440 -0.439 -0.439 -0.438  9.92727  9.88969-13.78357   0.061
 5.15 0.00 -0.440 -0.440 -0.439 -0.439 -0.438 10.42732 10.38970-13.28341   0.108
 5.15 0.50 -0.440 -0.440 -0.439 -0.439 -0.438 10.92727 10.88969-12.78357   0.192
 5.15 1.00 -0.440 -0.439 -0.439 -0.439 -0.438 11.42732 11.38970-12.28341   0.341
 5.15 1.25 -0.440 -0.439 -0.439 -0.439 -0.438 11.67727 11.63972-12.03335   0.455
 5.15 1.50 -0.439 -0.439 -0.439 -0.439 -0.437 11.92722 11.88975-11.78331   0.606
 5.15 1.75 -0.439 -0.439 -0.439 -0.439 -0.437 12.17727 12.13972-11.53336   0.808
 5.15 2.00 -0.439 -0.439 -0.439 -0.438 -0.437 12.42732 12.38970-11.28341   1.077
 5.15 2.25 -0.438 -0.438 -0.438 -0.438 -0.436 12.67727 12.63971-11.03336   1.436
 5.15 2.50 -0.438 -0.438 -0.438 -0.437 -0.436 12.92722 12.88975-10.78331   1.915
 5.15 2.75 -0.437 -0.437 -0.437 -0.436 -0.435 13.17718 13.13981-10.53332   2.554
 5.15 3.00 -0.436 -0.436 -0.435 -0.435 -0.433 13.42716 13.38987-10.28333   3.406
 5.15 3.20 -0.434 -0.434 -0.434 -0.433 -0.432 13.62716 13.58985-10.08333   4.288
 5.15 3.40 -0.433 -0.432 -0.432 -0.432 -0.430 13.82716 13.78982 -9.88332   5.398
 5.15 3.60 -0.430 -0.430 -0.430 -0.429 -0.427 14.02717 13.98982 -9.68330   6.795
 5.15 3.80 -0.427 -0.427 -0.427 -0.426 -0.423 14.22716 14.18985 -9.48327   8.554
 5.15 4.00 -0.423 -0.423 -0.422 -0.421 -0.418 14.42716 14.38988 -9.28325  10.768
 5.15 4.20 -0.416 -0.416 -0.416 -0.415 -0.412 14.62712 14.58989 -9.08327  13.555
 5.15 4.40 -0.408 -0.408 -0.408 -0.406 -0.403 14.82708 14.78991 -8.88329  17.064
 5.15 4.60 -0.396 -0.396 -0.396 -0.395 -0.390 15.02705 14.98994 -8.68328  21.480
 5.15 4.80 -0.381 -0.380 -0.380 -0.378 -0.374 15.22703 15.19000 -8.48322  27.040
 5.15 5.00 -0.359 -0.359 -0.358 -0.357 -0.352 15.42700 15.39005 -8.28316  34.039
 5.15 5.20 -0.330 -0.330 -0.330 -0.328 -0.323 15.62696 15.59007 -8.08311  42.846
 5.15 5.40 -0.293 -0.292 -0.292 -0.290 -0.284 15.82693 15.79008 -7.88307  53.933
 5.15 5.60 -0.245 -0.244 -0.244 -0.242 -0.236 16.02689 15.99011 -7.68302  67.887
 5.15 5.80 -0.185 -0.185 -0.184 -0.182 -0.176 16.22687 16.19016 -7.48297  85.453
 5.15 6.00 -0.112 -0.112 -0.111 -0.109 -0.104 16.42684 16.39023 -7.28291 107.563
 5.15 6.25 -0.002 -0.002 -0.001  0.000  0.005 16.67672 16.64032 -7.03285 143.399
 5.15 6.50  0.131  0.131  0.132  0.133  0.138 16.92660 16.89042 -6.78278 191.164
 5.15 6.75  0.290  0.290  0.291  0.292  0.297 17.17648 17.14059 -6.53260 254.832
 5.15 7.00  0.472  0.472  0.473  0.474  0.478 17.42635 17.39076 -6.28241 339.687
 5.15 7.25  0.666  0.666  0.666  0.667  0.671 17.67620 17.64090 -6.03233 452.760
 5.15 7.50  0.887  0.887  0.887  0.888  0.891 17.92603 17.89104 -5.78225 603.426
 5.15 7.75  1.118  1.118  1.118  1.119  1.121 18.17587 18.14123 -5.53198 804.164
 5.15 8.00  1.356  1.356  1.356  1.357  1.359 18.42570 18.39146 -5.281581071.593
 5.20-2.00 -0.431 -0.431 -0.431 -0.430 -0.429  8.37731  8.33965-15.33339   0.010
 5.20-1.50 -0.431 -0.431 -0.431 -0.430 -0.429  8.87726  8.83967-14.83357   0.017
 5.20-1.00 -0.431 -0.431 -0.431 -0.430 -0.429  9.37731  9.33965-14.33339   0.030
 5.20-0.50 -0.431 -0.431 -0.431 -0.430 -0.429  9.87726  9.83967-13.83357   0.054
 5.20 0.00 -0.431 -0.431 -0.431 -0.430 -0.429 10.37731 10.33965-13.33339   0.096
 5.20 0.50 -0.431 -0.431 -0.431 -0.430 -0.429 10.87726 10.83973-12.83357   0.171
 5.20 1.00 -0.431 -0.431 -0.431 -0.430 -0.429 11.37731 11.33985-12.33339   0.304
 5.20 1.25 -0.431 -0.431 -0.431 -0.430 -0.429 11.62728 11.58979-12.08348   0.405
 5.20 1.50 -0.431 -0.431 -0.431 -0.430 -0.429 11.87726 11.83973-11.83357   0.540
 5.20 1.75 -0.431 -0.431 -0.431 -0.430 -0.429 12.12728 12.08979-11.58348   0.720
 5.20 2.00 -0.431 -0.431 -0.431 -0.430 -0.429 12.37731 12.33985-11.33339   0.960
 5.20 2.25 -0.431 -0.431 -0.430 -0.430 -0.429 12.62725 12.58979-11.08332   1.280
 5.20 2.50 -0.431 -0.430 -0.430 -0.430 -0.429 12.87720 12.83973-10.83327   1.707
 5.20 2.75 -0.430 -0.430 -0.430 -0.430 -0.428 13.12725 13.08979-10.58333   2.277
 5.20 3.00 -0.430 -0.430 -0.429 -0.429 -0.428 13.37731 13.33985-10.33339   3.036
 5.20 3.20 -0.429 -0.429 -0.429 -0.428 -0.427 13.57724 13.53983-10.13334   3.822
 5.20 3.40 -0.428 -0.428 -0.428 -0.428 -0.426 13.77717 13.73980 -9.93330   4.811
 5.20 3.60 -0.427 -0.427 -0.427 -0.426 -0.425 13.97714 13.93980 -9.73328   6.057
 5.20 3.80 -0.425 -0.425 -0.425 -0.425 -0.423 14.17713 14.13982 -9.53329   7.624
 5.20 4.00 -0.423 -0.423 -0.423 -0.422 -0.421 14.37712 14.33985 -9.33329   9.598
 5.20 4.20 -0.420 -0.420 -0.420 -0.419 -0.417 14.57711 14.53988 -9.13329  12.082
 5.20 4.40 -0.416 -0.415 -0.415 -0.415 -0.412 14.77709 14.73990 -8.93328  15.209
 5.20 4.60 -0.409 -0.409 -0.409 -0.408 -0.406 14.97709 14.93994 -8.73327  19.146
 5.20 4.80 -0.400 -0.400 -0.400 -0.399 -0.396 15.17711 15.14000 -8.53324  24.101
 5.20 5.00 -0.387 -0.387 -0.387 -0.386 -0.383 15.37712 15.34005 -8.33320  30.340
 5.20 5.20 -0.369 -0.368 -0.368 -0.367 -0.364 15.57704 15.54005 -8.13311  38.191
 5.20 5.40 -0.343 -0.343 -0.342 -0.341 -0.337 15.77695 15.74005 -7.93302  48.074
 5.20 5.60 -0.308 -0.308 -0.308 -0.306 -0.302 15.97692 15.94008 -7.73297  60.513
 5.20 5.80 -0.262 -0.262 -0.262 -0.260 -0.256 16.17693 16.14017 -7.53294  76.172
 5.20 6.00 -0.204 -0.203 -0.203 -0.201 -0.196 16.37694 16.34025 -7.33292  95.883
 5.20 6.25 -0.110 -0.110 -0.109 -0.107 -0.102 16.62681 16.59030 -7.08280 127.830
 5.20 6.50  0.008  0.008  0.009  0.010  0.015 16.87668 16.84036 -6.83268 170.417
 5.20 6.75  0.151  0.151  0.152  0.153  0.158 17.12663 17.09050 -6.58261 227.189
 5.20 7.00  0.319  0.320  0.320  0.321  0.326 17.37658 17.34064 -6.33255 302.863
 5.20 7.25  0.498  0.498  0.499  0.500  0.504 17.62637 17.59075 -6.08247 403.689
 5.20 7.50  0.708  0.708  0.708  0.709  0.712 17.87616 17.84086 -5.83239 538.047
 5.20 7.75  0.928  0.928  0.928  0.929  0.932 18.12599 18.09103 -5.58215 717.094
 5.20 8.00  1.157  1.158  1.158  1.158  1.161 18.37585 18.34124 -5.33180 955.678
 5.25-2.00 -0.417 -0.417 -0.417 -0.417 -0.415  8.32736  8.28981-15.38342   0.009
 5.25-1.50 -0.417 -0.417 -0.417 -0.417 -0.415  8.82724  8.78972-14.88339   0.015
 5.25-1.00 -0.417 -0.417 -0.417 -0.417 -0.415  9.32736  9.28981-14.38342   0.027
 5.25-0.50 -0.417 -0.417 -0.417 -0.417 -0.415  9.82724  9.78972-13.88339   0.048
 5.25 0.00 -0.417 -0.417 -0.417 -0.417 -0.415 10.32736 10.28981-13.38342   0.086
 5.25 0.50 -0.417 -0.417 -0.417 -0.417 -0.415 10.82724 10.78972-12.88339   0.152
 5.25 1.00 -0.417 -0.417 -0.417 -0.417 -0.415 11.32736 11.28981-12.38342   0.271
 5.25 1.25 -0.417 -0.417 -0.417 -0.417 -0.415 11.57730 11.53977-12.13341   0.361
 5.25 1.50 -0.417 -0.417 -0.417 -0.417 -0.415 11.82724 11.78972-11.88339   0.481
 5.25 1.75 -0.417 -0.417 -0.417 -0.417 -0.415 12.07730 12.03977-11.63341   0.642
 5.25 2.00 -0.417 -0.417 -0.417 -0.417 -0.415 12.32736 12.28981-11.38342   0.856
 5.25 2.25 -0.417 -0.417 -0.417 -0.417 -0.415 12.57730 12.53977-11.13341   1.141
 5.25 2.50 -0.417 -0.417 -0.417 -0.416 -0.415 12.82724 12.78972-10.88339   1.522
 5.25 2.75 -0.417 -0.417 -0.417 -0.416 -0.415 13.07719 13.03977-10.63335   2.029
 5.25 3.00 -0.417 -0.417 -0.417 -0.416 -0.415 13.32715 13.28981-10.38331   2.706
 5.25 3.20 -0.417 -0.416 -0.416 -0.416 -0.415 13.52716 13.48980-10.18335   3.406
 5.25 3.40 -0.416 -0.416 -0.416 -0.416 -0.414 13.72717 13.68980 -9.98338   4.288
 5.25 3.60 -0.416 -0.416 -0.415 -0.415 -0.414 13.92717 13.88979 -9.78338   5.398
 5.25 3.80 -0.415 -0.415 -0.415 -0.414 -0.413 14.12717 14.08980 -9.58335   6.795
 5.25 4.00 -0.414 -0.414 -0.414 -0.413 -0.412 14.32716 14.28981 -9.38332   8.554
 5.25 4.20 -0.412 -0.412 -0.412 -0.411 -0.410 14.52714 14.48983 -9.18335  10.768
 5.25 4.40 -0.410 -0.410 -0.410 -0.409 -0.408 14.72712 14.68985 -8.98338  13.555
 5.25 4.60 -0.406 -0.406 -0.406 -0.406 -0.404 14.92712 14.88990 -8.78336  17.064
 5.25 4.80 -0.401 -0.401 -0.401 -0.400 -0.399 15.12714 15.08997 -8.58328  21.482
 5.25 5.00 -0.394 -0.394 -0.394 -0.393 -0.392 15.32715 15.29003 -8.38321  27.043
 5.25 5.20 -0.383 -0.383 -0.383 -0.382 -0.380 15.52709 15.49002 -8.18314  34.041
 5.25 5.40 -0.368 -0.368 -0.368 -0.367 -0.365 15.72702 15.69001 -7.98309  42.850
 5.25 5.60 -0.346 -0.346 -0.346 -0.345 -0.343 15.92698 15.89005 -7.78305  53.939
 5.25 5.80 -0.316 -0.316 -0.316 -0.315 -0.312 16.12696 16.09016 -7.58302  67.898
 5.25 6.00 -0.276 -0.275 -0.275 -0.274 -0.271 16.32695 16.29026 -7.38300  85.469
 5.25 6.25 -0.206 -0.206 -0.205 -0.204 -0.201 16.57684 16.54027 -7.13286 113.949
 5.25 6.50 -0.112 -0.112 -0.112 -0.110 -0.107 16.82672 16.79029 -6.88273 151.916
 5.25 6.75  0.008  0.008  0.008  0.009  0.013 17.07663 17.04037 -6.63271 202.532
 5.25 7.00  0.156  0.156  0.156  0.158  0.162 17.32654 17.29048 -6.38269 270.004
 5.25 7.25  0.326  0.327  0.327  0.328  0.332 17.57642 17.54062 -6.13255 359.907
 5.25 7.50  0.515  0.515  0.515  0.516  0.520 17.82627 17.79078 -5.88240 479.720
 5.25 7.75  0.723  0.723  0.724  0.725  0.728 18.07611 18.04095 -5.63223 639.403
 5.25 8.00  0.943  0.943  0.944  0.945  0.947 18.32593 18.29115 -5.38206 852.210
 5.30-2.00 -0.397 -0.397 -0.397 -0.397 -0.395  8.27738  8.23980-15.43344   0.008
 5.30-1.50 -0.397 -0.397 -0.397 -0.397 -0.395  8.77728  8.73965-14.93330   0.014
 5.30-1.00 -0.397 -0.397 -0.397 -0.397 -0.395  9.27738  9.23980-14.43344   0.024
 5.30-0.50 -0.397 -0.397 -0.397 -0.397 -0.395  9.77728  9.73973-13.93330   0.043
 5.30 0.00 -0.397 -0.397 -0.397 -0.397 -0.395 10.27738 10.23980-13.43344   0.076
 5.30 0.50 -0.397 -0.397 -0.397 -0.397 -0.395 10.77728 10.73973-12.93330   0.136
 5.30 1.00 -0.397 -0.397 -0.397 -0.397 -0.395 11.27738 11.23980-12.43344   0.241
 5.30 1.25 -0.397 -0.397 -0.397 -0.397 -0.395 11.52730 11.48977-12.18337   0.322
 5.30 1.50 -0.397 -0.397 -0.397 -0.397 -0.395 11.77721 11.73973-11.93330   0.429
 5.30 1.75 -0.397 -0.397 -0.397 -0.397 -0.395 12.02730 11.98977-11.68337   0.572
 5.30 2.00 -0.397 -0.397 -0.397 -0.397 -0.395 12.27738 12.23980-11.43344   0.763
 5.30 2.25 -0.397 -0.397 -0.397 -0.397 -0.395 12.52730 12.48977-11.18337   1.017
 5.30 2.50 -0.397 -0.397 -0.397 -0.397 -0.395 12.77721 12.73973-10.93330   1.356
 5.30 2.75 -0.397 -0.397 -0.397 -0.397 -0.395 13.02717 12.98977-10.68331   1.808
 5.30 3.00 -0.397 -0.397 -0.397 -0.396 -0.395 13.27715 13.23980-10.43333   2.411
 5.30 3.20 -0.397 -0.397 -0.397 -0.396 -0.395 13.47717 13.43981-10.23332   3.035
 5.30 3.40 -0.397 -0.397 -0.397 -0.396 -0.395 13.67720 13.63981-10.03331   3.822
 5.30 3.60 -0.397 -0.396 -0.396 -0.396 -0.395 13.87720 13.83981 -9.83331   4.811
 5.30 3.80 -0.396 -0.396 -0.396 -0.396 -0.394 14.07717 14.03980 -9.63332   6.056
 5.30 4.00 -0.396 -0.396 -0.396 -0.395 -0.394 14.27715 14.23980 -9.43333   7.624
 5.30 4.20 -0.395 -0.395 -0.395 -0.394 -0.393 14.47714 14.43983 -9.23332   9.598
 5.30 4.40 -0.394 -0.394 -0.393 -0.393 -0.392 14.67714 14.63986 -9.03331  12.082
 5.30 4.60 -0.392 -0.392 -0.392 -0.391 -0.390 14.87714 14.83992 -8.83328  15.210
 5.30 4.80 -0.389 -0.389 -0.389 -0.388 -0.387 15.07715 15.03999 -8.63325  19.147
 5.30 5.00 -0.385 -0.385 -0.385 -0.384 -0.383 15.27715 15.24005 -8.43321  24.104
 5.30 5.20 -0.378 -0.378 -0.378 -0.378 -0.376 15.47709 15.44002 -8.23325  30.342
 5.30 5.40 -0.370 -0.369 -0.369 -0.369 -0.367 15.67702 15.63999 -8.03328  38.195
 5.30 5.60 -0.356 -0.356 -0.356 -0.356 -0.354 15.87698 15.83998 -7.83326  48.079
 5.30 5.80 -0.338 -0.338 -0.337 -0.337 -0.335 16.07695 16.04000 -7.63318  60.522
 5.30 6.00 -0.312 -0.312 -0.311 -0.311 -0.309 16.27692 16.24005 -7.43309  76.185
 5.30 6.25 -0.265 -0.265 -0.265 -0.264 -0.262 16.52685 16.49013 -7.18301 101.574
 5.30 6.50 -0.199 -0.198 -0.198 -0.197 -0.195 16.77677 16.74021 -6.93293 135.421
 5.30 6.75 -0.108 -0.108 -0.107 -0.107 -0.104 17.02673 16.99025 -6.68283 180.546
 5.30 7.00  0.009  0.009  0.009  0.010  0.013 17.27669 17.24030 -6.43274 240.703
 5.30 7.25  0.154  0.154  0.154  0.155  0.158 17.52655 17.49043 -6.18265 320.873
 5.30 7.50  0.317  0.317  0.317  0.318  0.321 17.77641 17.74060 -5.93256 427.721
 5.30 7.75  0.508  0.508  0.508  0.509  0.512 18.02631 17.99081 -5.68238 570.121
 5.30 8.00  0.714  0.714  0.715  0.716  0.718 18.27623 18.24105 -5.43215 759.890
