 ROSSELAND MASS ABSORPTION COEFFICIENTS [-0.5]
 logT logP  0km/s  1km/s  2km/s  4km/s  8km/s  log Ne   log Na  log rho IPloCM-1
 3.32-2.00 -5.464 -5.479 -5.464 -5.439 -5.409  4.85315 10.53983-13.13147   0.001
 3.32-1.50 -5.483 -5.499 -5.483 -5.457 -5.426  5.29403 11.04060-12.63060   0.002
 3.32-1.00 -5.510 -5.527 -5.510 -5.483 -5.451  5.71508 11.54357-12.12773   0.004
 3.32-0.50 -5.539 -5.556 -5.539 -5.511 -5.478  6.12450 12.05192-11.61943   0.006
 3.32 0.00 -5.558 -5.575 -5.558 -5.530 -5.497  6.53958 12.57322-11.09811   0.010
 3.32 0.50 -5.555 -5.573 -5.555 -5.527 -5.494  6.97864 13.11428-10.55705   0.016
 3.32 1.00 -5.531 -5.549 -5.531 -5.503 -5.470  7.42700 13.66783-10.00349   0.027
 3.32 1.25 -5.515 -5.533 -5.515 -5.487 -5.454  7.63836 13.94284 -9.72843   0.034
 3.32 1.50 -5.499 -5.516 -5.499 -5.471 -5.438  7.83923 14.21590 -9.45531   0.043
 3.32 1.75 -5.482 -5.498 -5.482 -5.455 -5.422  8.02515 14.48487 -9.18643   0.054
 3.32 2.00 -5.463 -5.479 -5.463 -5.437 -5.406  8.20140 14.75059 -8.92082   0.066
 3.32 2.25 -5.442 -5.457 -5.442 -5.417 -5.387  8.36855 15.01286 -8.65851   0.080
 3.32 2.50 -5.418 -5.432 -5.418 -5.395 -5.366  8.53199 15.27254 -8.39881   0.096
 3.32 2.75 -5.388 -5.401 -5.388 -5.366 -5.339  8.69242 15.52996 -8.14143   0.116
 3.32 3.00 -5.352 -5.364 -5.352 -5.333 -5.307  8.85285 15.78569 -7.88572   0.139
 3.32 3.20 -5.318 -5.329 -5.318 -5.300 -5.276  8.98245 15.98926 -7.68214   0.161
 3.32 3.40 -5.279 -5.289 -5.279 -5.262 -5.239  9.11288 16.19216 -7.47921   0.187
 3.32 3.60 -5.234 -5.243 -5.234 -5.218 -5.197  9.24467 16.39442 -7.27690   0.218
 3.32 3.80 -5.183 -5.191 -5.183 -5.168 -5.149  9.37720 16.59624 -7.07502   0.254
 3.32 4.00 -5.126 -5.133 -5.126 -5.113 -5.095  9.50974 16.79768 -6.87354   0.296
 3.32 4.20 -5.068 -5.075 -5.068 -5.055 -5.037  9.64050 16.99884 -6.67247   0.344
 3.32 4.40 -5.004 -5.011 -5.004 -4.992 -4.974  9.76950 17.19978 -6.47158   0.399
 3.32 4.60 -4.937 -4.944 -4.937 -4.925 -4.907  9.89576 17.40050 -6.27083   0.462
 3.32 4.80 -4.866 -4.873 -4.866 -4.854 -4.836 10.01827 17.60108 -6.07018   0.532
 3.32 5.00 -4.787 -4.794 -4.787 -4.775 -4.757 10.13767 17.80154 -5.86967   0.610
 3.32 5.20 -4.702 -4.708 -4.702 -4.690 -4.672 10.25352 18.00190 -5.66936   0.697
 3.32 5.40 -4.606 -4.612 -4.606 -4.594 -4.577 10.36678 18.20221 -5.46909   0.794
 3.32 5.60 -4.497 -4.503 -4.497 -4.486 -4.469 10.47747 18.40246 -5.26883   0.902
 3.32 5.80 -4.372 -4.378 -4.372 -4.362 -4.346 10.58625 18.60268 -5.06859   1.022
 3.32 6.00 -4.229 -4.234 -4.229 -4.219 -4.204 10.69329 18.80284 -4.86838   1.156
 3.32 6.25 -4.016 -4.021 -4.016 -4.008 -3.995 10.82507 19.05291 -4.61832   1.345
 3.32 6.50 -3.759 -3.762 -3.759 -3.752 -3.741 10.95521 19.30298 -4.36825   1.563
 3.32 6.75 -3.448 -3.451 -3.448 -3.442 -3.434 11.08408 19.55308 -4.11816   1.813
 3.32 7.00 -3.243 -3.246 -3.243 -3.239 -3.232 11.21192 19.80318 -3.86806   2.101
 3.32 7.25 -3.126 -3.128 -3.126 -3.122 -3.116 11.33894 20.05319 -3.61805   2.432
 3.32 7.50 -3.014 -3.016 -3.014 -3.011 -3.006 11.46523 20.30320 -3.36805   2.812
 3.32 7.75 -2.907 -2.909 -2.907 -2.904 -2.900 11.59094 20.55325 -3.11805   3.250
 3.32 8.00 -2.805 -2.807 -2.805 -2.802 -2.798 11.71600 20.80332 -2.86806   3.754
 3.34-2.00 -5.386 -5.401 -5.386 -5.361 -5.330  4.92505 10.51943-13.15187   0.001
 3.34-1.50 -5.408 -5.424 -5.408 -5.382 -5.350  5.36229 11.01953-12.65170   0.002
 3.34-1.00 -5.421 -5.437 -5.421 -5.394 -5.360  5.80496 11.52061-12.15070   0.004
 3.34-0.50 -5.432 -5.449 -5.432 -5.403 -5.368  6.23249 12.02325-11.64801   0.007
 3.34 0.00 -5.435 -5.454 -5.435 -5.405 -5.369  6.64650 12.53135-11.13990   0.011
 3.34 0.50 -5.419 -5.438 -5.419 -5.388 -5.351  7.06070 13.05231-10.61907   0.017
 3.34 1.00 -5.375 -5.394 -5.375 -5.343 -5.306  7.49234 13.59284-10.07852   0.028
 3.34 1.25 -5.342 -5.362 -5.342 -5.311 -5.274  7.71448 13.86949 -9.80186   0.036
 3.34 1.50 -5.307 -5.326 -5.307 -5.276 -5.239  7.93661 14.14613 -9.52520   0.047
 3.34 1.75 -5.270 -5.289 -5.270 -5.240 -5.204  8.14946 14.42129 -9.25008   0.060
 3.34 2.00 -5.235 -5.253 -5.235 -5.206 -5.171  8.35353 14.69469 -8.97675   0.076
 3.34 2.25 -5.201 -5.218 -5.201 -5.174 -5.140  8.54259 14.96383 -8.70756   0.095
 3.34 2.50 -5.169 -5.185 -5.169 -5.143 -5.111  8.72148 15.22968 -8.44165   0.117
 3.34 2.75 -5.135 -5.150 -5.135 -5.112 -5.081  8.89056 15.49214 -8.17920   0.142
 3.34 3.00 -5.101 -5.115 -5.101 -5.079 -5.051  9.05461 15.75197 -7.91937   0.171
 3.34 3.20 -5.070 -5.083 -5.070 -5.049 -5.023  9.18223 15.95812 -7.71322   0.198
 3.34 3.40 -5.037 -5.049 -5.037 -5.017 -4.992  9.30984 16.16318 -7.50817   0.229
 3.34 3.60 -4.998 -5.009 -4.998 -4.980 -4.957  9.43756 16.36718 -7.30416   0.266
 3.34 3.80 -4.955 -4.964 -4.955 -4.938 -4.916  9.56561 16.57046 -7.10087   0.309
 3.34 4.00 -4.906 -4.914 -4.906 -4.891 -4.871  9.69399 16.77306 -6.89825   0.358
 3.34 4.20 -4.857 -4.865 -4.857 -4.842 -4.822  9.82387 16.97506 -6.69618   0.416
 3.34 4.40 -4.802 -4.810 -4.802 -4.788 -4.769  9.95376 17.17669 -6.49452   0.483
 3.34 4.60 -4.746 -4.753 -4.746 -4.732 -4.713 10.08311 17.37802 -6.29326   0.560
 3.34 4.80 -4.688 -4.695 -4.688 -4.674 -4.655 10.21083 17.57914 -6.09225   0.649
 3.34 5.00 -4.626 -4.633 -4.626 -4.613 -4.593 10.33706 17.78003 -5.89144   0.750
 3.34 5.20 -4.564 -4.571 -4.564 -4.551 -4.532 10.45968 17.98072 -5.69071   0.864
 3.34 5.40 -4.500 -4.507 -4.500 -4.487 -4.468 10.57952 18.18127 -5.49012   0.991
 3.34 5.60 -4.433 -4.440 -4.433 -4.421 -4.403 10.69633 18.38168 -5.28967   1.134
 3.34 5.80 -4.366 -4.372 -4.366 -4.354 -4.336 10.81036 18.58201 -5.08933   1.293
 3.34 6.00 -4.297 -4.303 -4.297 -4.285 -4.268 10.92195 18.78226 -4.88907   1.470
 3.34 6.25 -4.209 -4.215 -4.209 -4.199 -4.182 11.05828 19.03244 -4.63887   1.720
 3.34 6.50 -4.121 -4.127 -4.121 -4.111 -4.095 11.19201 19.28262 -4.38870   2.006
 3.34 6.75 -4.032 -4.037 -4.032 -4.022 -4.007 11.32364 19.53280 -4.13854   2.335
 3.34 7.00 -3.942 -3.947 -3.942 -3.933 -3.919 11.45363 19.78298 -3.88840   2.712
 3.34 7.25 -3.853 -3.858 -3.853 -3.844 -3.831 11.58230 20.03303 -3.63834   3.145
 3.34 7.50 -3.764 -3.768 -3.764 -3.755 -3.744 11.70986 20.28308 -3.38828   3.642
 3.34 7.75 -3.674 -3.679 -3.674 -3.667 -3.656 11.83658 20.53313 -3.13818   4.214
 3.34 8.00 -3.585 -3.590 -3.585 -3.578 -3.568 11.96237 20.78319 -2.88807   4.871
 3.36-2.00 -5.255 -5.269 -5.255 -5.230 -5.199  5.09132 10.49941-13.17199   0.002
 3.36-1.50 -5.314 -5.329 -5.314 -5.288 -5.255  5.46523 10.99939-12.67182   0.003
 3.36-1.00 -5.344 -5.360 -5.344 -5.317 -5.283  5.87846 11.49969-12.17160   0.004
 3.36-0.50 -5.351 -5.368 -5.351 -5.322 -5.286  6.31323 12.00043-11.67081   0.007
 3.36 0.00 -5.339 -5.357 -5.339 -5.308 -5.270  6.74367 12.50352-11.16787   0.012
 3.36 0.50 -5.302 -5.322 -5.302 -5.270 -5.231  7.16167 13.01157-10.65956   0.019
 3.36 1.00 -5.234 -5.255 -5.234 -5.200 -5.160  7.57749 13.53288-10.13841   0.031
 3.36 1.25 -5.189 -5.210 -5.189 -5.155 -5.115  7.78987 13.80137 -9.86981   0.039
 3.36 1.50 -5.138 -5.159 -5.138 -5.105 -5.065  8.00518 14.07372 -9.59739   0.050
 3.36 1.75 -5.084 -5.104 -5.084 -5.051 -5.013  8.22485 14.35054 -9.32069   0.064
 3.36 2.00 -5.028 -5.047 -5.028 -4.997 -4.959  8.44451 14.62737 -9.04398   0.083
 3.36 2.25 -4.972 -4.990 -4.972 -4.942 -4.907  8.65683 14.90241 -8.76889   0.106
 3.36 2.50 -4.919 -4.936 -4.919 -4.891 -4.857  8.86165 15.17551 -8.49567   0.134
 3.36 2.75 -4.869 -4.885 -4.869 -4.843 -4.810  9.05231 15.44458 -8.22668   0.167
 3.36 3.00 -4.823 -4.838 -4.823 -4.798 -4.768  9.23274 15.71037 -7.96098   0.205
 3.36 3.20 -4.786 -4.800 -4.786 -4.763 -4.734  9.36918 15.92035 -7.75094   0.240
 3.36 3.40 -4.749 -4.762 -4.749 -4.728 -4.700  9.50199 16.12868 -7.54258   0.280
 3.36 3.60 -4.711 -4.723 -4.711 -4.691 -4.665  9.63085 16.33545 -7.33586   0.325
 3.36 3.80 -4.670 -4.680 -4.670 -4.652 -4.627  9.75812 16.54104 -7.13036   0.376
 3.36 4.00 -4.625 -4.634 -4.625 -4.609 -4.587  9.88491 16.74554 -6.92592   0.435
 3.36 4.20 -4.581 -4.589 -4.581 -4.565 -4.544 10.01139 16.94905 -6.72233   0.503
 3.36 4.40 -4.532 -4.540 -4.532 -4.517 -4.496 10.13788 17.15191 -6.51939   0.583
 3.36 4.60 -4.480 -4.488 -4.480 -4.466 -4.446 10.26484 17.35418 -6.31705   0.675
 3.36 4.80 -4.427 -4.434 -4.427 -4.413 -4.393 10.39227 17.55605 -6.11514   0.781
 3.36 5.00 -4.368 -4.375 -4.368 -4.355 -4.335 10.51970 17.75755 -5.91364   0.904
 3.36 5.20 -4.307 -4.314 -4.307 -4.294 -4.275 10.64584 17.95873 -5.71255   1.045
 3.36 5.40 -4.243 -4.250 -4.243 -4.231 -4.212 10.77066 18.15968 -5.51166   1.207
 3.36 5.60 -4.176 -4.182 -4.176 -4.164 -4.146 10.89339 18.36042 -5.31091   1.390
 3.36 5.80 -4.107 -4.113 -4.107 -4.095 -4.078 11.01313 18.56102 -5.11026   1.595
 3.36 6.00 -4.036 -4.041 -4.036 -4.025 -4.008 11.13033 18.76148 -4.90974   1.826
 3.36 6.25 -3.946 -3.951 -3.946 -3.936 -3.920 11.27266 19.01188 -4.65934   2.151
 3.36 6.50 -3.855 -3.860 -3.855 -3.846 -3.831 11.41145 19.26221 -4.40905   2.524
 3.36 6.75 -3.764 -3.769 -3.764 -3.755 -3.742 11.54708 19.51252 -4.15885   2.951
 3.36 7.00 -3.673 -3.678 -3.673 -3.665 -3.653 11.68025 19.76275 -3.90869   3.440
 3.36 7.25 -3.583 -3.587 -3.583 -3.575 -3.564 11.81135 20.01284 -3.65852   4.000
 3.36 7.50 -3.493 -3.497 -3.493 -3.486 -3.476 11.94082 20.26293 -3.40838   4.643
 3.36 7.75 -3.404 -3.408 -3.404 -3.398 -3.389 12.06904 20.51302 -3.15832   5.382
 3.36 8.00 -3.316 -3.319 -3.316 -3.310 -3.302 12.19590 20.76313 -2.90833   6.228
 3.38-2.00 -5.077 -5.091 -5.077 -5.053 -5.024  5.33706 10.47929-13.19199   0.002
 3.38-1.50 -5.164 -5.178 -5.164 -5.138 -5.106  5.66773 10.97932-12.69208   0.003
 3.38-1.00 -5.231 -5.246 -5.231 -5.203 -5.169  6.01870 11.47943-12.19186   0.005
 3.38-0.50 -5.266 -5.283 -5.266 -5.237 -5.201  6.40518 11.97973-11.69165   0.008
 3.38 0.00 -5.261 -5.279 -5.261 -5.230 -5.192  6.82413 12.48073-11.19058   0.013
 3.38 0.50 -5.214 -5.234 -5.214 -5.181 -5.141  7.25164 12.98372-10.68761   0.021
 3.38 1.00 -5.123 -5.144 -5.123 -5.088 -5.046  7.67219 13.49262-10.17875   0.033
 3.38 1.25 -5.062 -5.083 -5.062 -5.028 -4.985  7.88122 13.75178 -9.91967   0.042
 3.38 1.50 -4.993 -5.014 -4.993 -4.958 -4.916  8.09026 14.01494 -9.65659   0.054
 3.38 1.75 -4.920 -4.941 -4.920 -4.886 -4.846  8.30261 14.28417 -9.38722   0.069
 3.38 2.00 -4.843 -4.864 -4.843 -4.811 -4.771  8.51693 14.55703 -9.11424   0.088
 3.38 2.25 -4.767 -4.786 -4.767 -4.736 -4.698  8.73392 14.83381 -8.83746   0.113
 3.38 2.50 -4.690 -4.709 -4.690 -4.661 -4.625  8.95090 15.11059 -8.56067   0.145
 3.38 2.75 -4.616 -4.633 -4.616 -4.589 -4.555  9.16161 15.38548 -8.28582   0.185
 3.38 3.00 -4.547 -4.563 -4.547 -4.522 -4.489  9.36567 15.65830 -8.01305   0.234
 3.38 3.20 -4.495 -4.510 -4.495 -4.471 -4.441  9.51906 15.87335 -7.79797   0.279
 3.38 3.40 -4.447 -4.460 -4.447 -4.425 -4.396  9.66607 16.08632 -7.58497   0.331
 3.38 3.60 -4.401 -4.413 -4.401 -4.381 -4.354  9.80609 16.29711 -7.37414   0.389
 3.38 3.80 -4.356 -4.366 -4.356 -4.337 -4.312  9.94094 16.50607 -7.16515   0.454
 3.38 4.00 -4.311 -4.320 -4.311 -4.295 -4.272 10.07188 16.71341 -6.95782   0.528
 3.38 4.20 -4.268 -4.277 -4.268 -4.253 -4.231 10.19917 16.91926 -6.75202   0.611
 3.38 4.40 -4.224 -4.231 -4.224 -4.209 -4.188 10.32548 17.12407 -6.54726   0.707
 3.38 4.60 -4.178 -4.186 -4.178 -4.165 -4.144 10.45083 17.32789 -6.34346   0.817
 3.38 4.80 -4.131 -4.138 -4.131 -4.118 -4.098 10.57594 17.53102 -6.14031   0.943
 3.38 5.00 -4.080 -4.087 -4.080 -4.067 -4.048 10.70105 17.73352 -5.93779   1.089
 3.38 5.20 -4.026 -4.033 -4.026 -4.014 -3.995 10.82627 17.93551 -5.73583   1.258
 3.38 5.40 -3.968 -3.974 -3.968 -3.956 -3.938 10.95149 18.13713 -5.53423   1.453
 3.38 5.60 -3.905 -3.910 -3.905 -3.893 -3.876 11.07621 18.33838 -5.33295   1.677
 3.38 5.80 -3.838 -3.843 -3.838 -3.827 -3.811 11.19946 18.53940 -5.13190   1.932
 3.38 6.00 -3.769 -3.774 -3.769 -3.759 -3.743 11.32139 18.74021 -4.93107   2.224
 3.38 6.25 -3.679 -3.684 -3.679 -3.670 -3.656 11.46980 18.99097 -4.68038   2.638
 3.38 6.50 -3.588 -3.592 -3.588 -3.580 -3.566 11.61458 19.24155 -4.42981   3.117
 3.38 6.75 -3.497 -3.500 -3.497 -3.489 -3.477 11.75536 19.49199 -4.17928   3.665
 3.38 7.00 -3.405 -3.409 -3.405 -3.398 -3.387 11.89287 19.74233 -3.92886   4.294
 3.38 7.25 -3.314 -3.317 -3.314 -3.307 -3.297 12.02739 19.99260 -3.67873   5.014
 3.38 7.50 -3.224 -3.227 -3.224 -3.218 -3.209 12.15957 20.24279 -3.42864   5.838
 3.38 7.75 -3.135 -3.138 -3.135 -3.130 -3.122 12.28999 20.49291 -3.17856   6.784
 3.38 8.00 -3.048 -3.050 -3.048 -3.043 -3.036 12.41847 20.74296 -2.92849   7.864
 3.40-2.00 -4.896 -4.909 -4.896 -4.874 -4.847  5.57784 10.45924-13.21197   0.003
 3.40-1.50 -4.985 -4.999 -4.985 -4.961 -4.930  5.91403 10.95928-12.71198   0.004
 3.40-1.00 -5.070 -5.085 -5.070 -5.043 -5.010  6.24155 11.45939-12.21197   0.006
 3.40-0.50 -5.135 -5.152 -5.135 -5.107 -5.071  6.57761 11.95942-11.71197   0.009
 3.40 0.00 -5.164 -5.182 -5.164 -5.133 -5.094  6.94126 12.45984-11.21148   0.014
 3.40 0.50 -5.134 -5.153 -5.134 -5.101 -5.060  7.33985 12.96090-10.71041   0.022
 3.40 1.00 -5.038 -5.059 -5.038 -5.004 -4.960  7.75891 13.46434-10.20698   0.036
 3.40 1.25 -4.968 -4.988 -4.968 -4.933 -4.889  7.96893 13.71810 -9.95321   0.046
 3.40 1.50 -4.884 -4.905 -4.884 -4.850 -4.806  8.17898 13.97405 -9.69724   0.058
 3.40 1.75 -4.791 -4.811 -4.791 -4.757 -4.715  8.38903 14.23409 -9.43722   0.074
 3.40 2.00 -4.690 -4.710 -4.690 -4.657 -4.616  8.59912 14.49831 -9.17302   0.095
 3.40 2.25 -4.589 -4.608 -4.589 -4.557 -4.517  8.81189 14.76858 -8.90260   0.121
 3.40 2.50 -4.487 -4.505 -4.487 -4.457 -4.419  9.02572 15.04218 -8.62893   0.155
 3.40 2.75 -4.390 -4.407 -4.390 -4.362 -4.327  9.24059 15.31917 -8.35207   0.198
 3.40 3.00 -4.297 -4.313 -4.297 -4.272 -4.239  9.45545 15.59616 -8.07520   0.254
 3.40 3.20 -4.227 -4.241 -4.227 -4.203 -4.173  9.62269 15.81584 -7.85550   0.308
 3.40 3.40 -4.161 -4.174 -4.161 -4.139 -4.111  9.78571 16.03394 -7.63735   0.371
 3.40 3.60 -4.099 -4.111 -4.099 -4.080 -4.053  9.94262 16.24990 -7.42136   0.445
 3.40 3.80 -4.042 -4.052 -4.042 -4.025 -4.000 10.09201 16.46337 -7.20791   0.528
 3.40 4.00 -3.989 -3.997 -3.989 -3.974 -3.952 10.23528 16.67477 -6.99654   0.622
 3.40 4.20 -3.941 -3.949 -3.941 -3.927 -3.906 10.37164 16.88406 -6.78726   0.728
 3.40 4.40 -3.896 -3.902 -3.896 -3.882 -3.863 10.50406 17.09179 -6.57953   0.848
 3.40 4.60 -3.852 -3.858 -3.852 -3.839 -3.820 10.63242 17.29799 -6.37333   0.983
 3.40 4.80 -3.809 -3.815 -3.809 -3.797 -3.779 10.75866 17.50308 -6.16824   1.137
 3.40 5.00 -3.764 -3.770 -3.764 -3.752 -3.735 10.88355 17.70714 -5.96417   1.313
 3.40 5.20 -3.718 -3.723 -3.718 -3.707 -3.690 11.00748 17.91035 -5.76100   1.514
 3.40 5.40 -3.667 -3.673 -3.667 -3.657 -3.641 11.13113 18.11296 -5.55839   1.745
 3.40 5.60 -3.613 -3.618 -3.613 -3.603 -3.587 11.25464 18.31503 -5.35628   2.012
 3.40 5.80 -3.554 -3.558 -3.554 -3.544 -3.529 11.37800 18.51673 -5.15451   2.319
 3.40 6.00 -3.490 -3.495 -3.490 -3.481 -3.467 11.50106 18.71809 -4.95312   2.673
 3.40 6.25 -3.406 -3.410 -3.406 -3.398 -3.385 11.65287 18.96939 -4.70192   3.183
 3.40 6.50 -3.319 -3.322 -3.319 -3.311 -3.299 11.80243 19.22037 -4.45100   3.781
 3.40 6.75 -3.229 -3.232 -3.229 -3.222 -3.211 11.94818 19.47109 -4.20022   4.472
 3.40 7.00 -3.138 -3.141 -3.138 -3.132 -3.122 12.09061 19.72165 -3.94962   5.270
 3.40 7.25 -3.047 -3.050 -3.047 -3.042 -3.033 12.22955 19.97211 -3.69922   6.183
 3.40 7.50 -2.958 -2.960 -2.958 -2.953 -2.945 12.36549 20.22246 -3.44892   7.230
 3.40 7.75 -2.869 -2.872 -2.869 -2.865 -2.858 12.49882 20.47269 -3.19866   8.430
 3.40 8.00 -2.783 -2.785 -2.783 -2.779 -2.772 12.62941 20.72280 -2.94846   9.798
 3.42-2.00 -4.744 -4.756 -4.744 -4.724 -4.699  5.76065 10.43933-13.23195   0.004
 3.42-1.50 -4.816 -4.829 -4.816 -4.793 -4.765  6.13290 10.93932-12.73189   0.005
 3.42-1.00 -4.895 -4.909 -4.895 -4.870 -4.838  6.47784 11.43933-12.23195   0.008
 3.42-0.50 -4.969 -4.985 -4.969 -4.942 -4.907  6.80665 11.93937-11.73189   0.012
 3.42 0.00 -5.020 -5.038 -5.020 -4.990 -4.951  7.13545 12.43949-11.23173   0.017
 3.42 0.50 -5.022 -5.041 -5.022 -4.989 -4.947  7.48202 12.93992-10.73142   0.026
 3.42 1.00 -4.949 -4.969 -4.949 -4.914 -4.869  7.86064 13.44122-10.23003   0.040
 3.42 1.25 -4.881 -4.901 -4.881 -4.846 -4.800  8.06193 13.69273 -9.97853   0.050
 3.42 1.50 -4.794 -4.815 -4.794 -4.760 -4.714  8.26694 13.94522 -9.72607   0.063
 3.42 1.75 -4.691 -4.711 -4.691 -4.657 -4.612  8.47438 14.19963 -9.47166   0.080
 3.42 2.00 -4.575 -4.594 -4.575 -4.542 -4.498  8.68341 14.45652 -9.21474   0.102
 3.42 2.25 -4.449 -4.468 -4.449 -4.418 -4.377  8.89328 14.71783 -8.95346   0.130
 3.42 2.50 -4.320 -4.338 -4.320 -4.291 -4.252  9.10449 14.98349 -8.68782   0.165
 3.42 2.75 -4.196 -4.212 -4.196 -4.169 -4.133  9.31818 15.25551 -8.41580   0.211
 3.42 3.00 -4.077 -4.092 -4.077 -4.052 -4.019  9.53186 15.53007 -8.14122   0.271
 3.42 3.20 -3.989 -4.002 -3.989 -3.966 -3.936  9.70243 15.75144 -7.91982   0.330
 3.42 3.40 -3.906 -3.917 -3.906 -3.885 -3.857  9.87238 15.97282 -7.69841   0.401
 3.42 3.60 -3.828 -3.838 -3.828 -3.809 -3.784 10.04013 16.19329 -7.47794   0.486
 3.42 3.80 -3.754 -3.763 -3.754 -3.738 -3.716 10.20283 16.41156 -7.25971   0.586
 3.42 4.00 -3.687 -3.694 -3.687 -3.673 -3.652 10.36116 16.62808 -7.04326   0.703
 3.42 4.20 -3.627 -3.634 -3.627 -3.614 -3.595 10.51172 16.84172 -6.82958   0.836
 3.42 4.40 -3.572 -3.578 -3.572 -3.561 -3.543 10.65646 17.05332 -6.61793   0.988
 3.42 4.60 -3.523 -3.528 -3.523 -3.512 -3.495 10.79477 17.26288 -6.40833   1.158
 3.42 4.80 -3.478 -3.483 -3.478 -3.467 -3.451 10.92813 17.47080 -6.20040   1.351
 3.42 5.00 -3.434 -3.438 -3.434 -3.424 -3.408 11.05767 17.67724 -5.99396   1.568
 3.42 5.20 -3.391 -3.396 -3.391 -3.381 -3.367 11.18389 17.88239 -5.78887   1.813
 3.42 5.40 -3.347 -3.351 -3.347 -3.338 -3.323 11.30857 18.08661 -5.58469   2.093
 3.42 5.60 -3.300 -3.304 -3.300 -3.291 -3.277 11.43188 18.28994 -5.38133   2.412
 3.42 5.80 -3.249 -3.253 -3.249 -3.241 -3.228 11.55448 18.49268 -5.17855   2.777
 3.42 6.00 -3.195 -3.199 -3.195 -3.187 -3.175 11.67642 18.69487 -4.97634   3.196
 3.42 6.25 -3.121 -3.124 -3.121 -3.114 -3.102 11.82850 18.94703 -4.72430   3.808
 3.42 6.50 -3.041 -3.044 -3.041 -3.034 -3.024 11.97950 19.19866 -4.47276   4.531
 3.42 6.75 -2.957 -2.960 -2.957 -2.951 -2.942 12.12847 19.44982 -4.22153   5.378
 3.42 7.00 -2.871 -2.873 -2.871 -2.865 -2.856 12.27508 19.70070 -3.97062   6.367
 3.42 7.25 -2.783 -2.785 -2.783 -2.777 -2.770 12.41811 19.95141 -3.71999   7.507
 3.42 7.50 -2.695 -2.697 -2.695 -2.690 -2.683 12.55799 20.20194 -3.46954   8.819
 3.42 7.75 -2.608 -2.610 -2.608 -2.603 -2.597 12.69471 20.45231 -3.21920  10.323
 3.42 8.00 -2.522 -2.524 -2.522 -2.518 -2.513 12.82827 20.70252 -2.96900  12.039
 3.44-2.00 -4.634 -4.645 -4.634 -4.616 -4.592  5.87367 10.41929-13.25197   0.004
 3.44-1.50 -4.680 -4.692 -4.680 -4.659 -4.633  6.28937 10.91929-12.75203   0.006
 3.44-1.00 -4.738 -4.751 -4.738 -4.715 -4.685  6.67459 11.41930-12.25197   0.010
 3.44-0.50 -4.800 -4.815 -4.800 -4.774 -4.741  7.02938 11.91934-11.75203   0.015
 3.44 0.00 -4.851 -4.868 -4.851 -4.822 -4.784  7.36267 12.41946-11.25189   0.022
 3.44 0.50 -4.867 -4.886 -4.867 -4.834 -4.792  7.68833 12.91955-10.75178   0.032
 3.44 1.00 -4.819 -4.839 -4.819 -4.784 -4.738  8.02366 13.42012-10.25119   0.047
 3.44 1.25 -4.763 -4.784 -4.763 -4.728 -4.681  8.20096 13.67069-10.00058   0.058
 3.44 1.50 -4.687 -4.707 -4.687 -4.651 -4.604  8.38525 13.92163 -9.74958   0.071
 3.44 1.75 -4.587 -4.607 -4.587 -4.552 -4.505  8.57816 14.17347 -9.49777   0.088
 3.44 2.00 -4.469 -4.488 -4.469 -4.435 -4.390  8.77685 14.42651 -9.24481   0.111
 3.44 2.25 -4.334 -4.352 -4.334 -4.302 -4.259  8.98036 14.68177 -8.98955   0.140
 3.44 2.50 -4.190 -4.206 -4.190 -4.160 -4.120  9.18724 14.93987 -8.73142   0.178
 3.44 2.75 -4.042 -4.057 -4.042 -4.015 -3.978  9.39671 15.20299 -8.46834   0.227
 3.44 3.00 -3.896 -3.910 -3.896 -3.872 -3.839  9.60810 15.47056 -8.20080   0.289
 3.44 3.20 -3.787 -3.799 -3.787 -3.765 -3.735  9.77887 15.68936 -7.98191   0.352
 3.44 3.40 -3.683 -3.694 -3.683 -3.664 -3.637  9.94964 15.90921 -7.76202   0.428
 3.44 3.60 -3.587 -3.596 -3.587 -3.570 -3.546 10.11998 16.13013 -7.54112   0.520
 3.44 3.80 -3.498 -3.506 -3.498 -3.483 -3.462 10.28872 16.35133 -7.31997   0.632
 3.44 4.00 -3.416 -3.422 -3.416 -3.403 -3.384 10.45591 16.57252 -7.09881   0.766
 3.44 4.20 -3.342 -3.348 -3.342 -3.331 -3.314 10.61812 16.79070 -6.88058   0.923
 3.44 4.40 -3.274 -3.279 -3.274 -3.264 -3.248 10.77565 17.00691 -6.66430   1.107
 3.44 4.60 -3.213 -3.218 -3.213 -3.204 -3.189 10.92737 17.22089 -6.45031   1.319
 3.44 4.80 -3.159 -3.163 -3.159 -3.150 -3.136 11.07267 17.43266 -6.23859   1.559
 3.44 5.00 -3.109 -3.113 -3.109 -3.100 -3.087 11.21245 17.64247 -6.02882   1.831
 3.44 5.20 -3.064 -3.068 -3.064 -3.056 -3.043 11.34627 17.85032 -5.82090   2.136
 3.44 5.40 -3.020 -3.024 -3.020 -3.012 -3.000 11.47640 18.05682 -5.61435   2.481
 3.44 5.60 -2.976 -2.980 -2.976 -2.969 -2.957 11.60282 18.26206 -5.40913   2.870
 3.44 5.80 -2.931 -2.935 -2.931 -2.924 -2.913 11.72709 18.46639 -5.20485   3.311
 3.44 6.00 -2.884 -2.887 -2.884 -2.877 -2.867 11.84973 18.66988 -5.00144   3.813
 3.44 6.25 -2.821 -2.824 -2.821 -2.814 -2.805 12.00172 18.92325 -4.74817   4.542
 3.44 6.50 -2.752 -2.755 -2.752 -2.746 -2.737 12.15229 19.17580 -4.49567   5.402
 3.44 6.75 -2.678 -2.680 -2.678 -2.672 -2.664 12.30195 19.42766 -4.24372   6.418
 3.44 7.00 -2.599 -2.601 -2.599 -2.594 -2.586 12.45010 19.67907 -3.99225   7.612
 3.44 7.25 -2.516 -2.519 -2.516 -2.512 -2.505 12.59602 19.93016 -3.74120   9.004
 3.44 7.50 -2.433 -2.435 -2.433 -2.428 -2.422 12.73942 20.18099 -3.49040  10.620
 3.44 7.75 -2.349 -2.351 -2.349 -2.345 -2.339 12.87937 20.43159 -3.23974  12.478
 3.44 8.00 -2.266 -2.268 -2.266 -2.262 -2.257 13.01620 20.68196 -2.98928  14.609
 3.46-2.00 -4.563 -4.573 -4.563 -4.546 -4.524  5.92834 10.39933-13.27197   0.004
 3.46-1.50 -4.584 -4.595 -4.584 -4.565 -4.541  6.38112 10.89927-12.77211   0.007
 3.46-1.00 -4.616 -4.628 -4.616 -4.595 -4.567  6.80726 11.39933-12.27197   0.011
 3.46-0.50 -4.654 -4.668 -4.654 -4.630 -4.598  7.20412 11.89927-11.77211   0.018
 3.46 0.00 -4.686 -4.702 -4.686 -4.658 -4.622  7.56902 12.39933-11.27197   0.027
 3.46 0.50 -4.692 -4.711 -4.692 -4.661 -4.620  7.90811 12.89938-10.77186   0.040
 3.46 1.00 -4.649 -4.669 -4.649 -4.614 -4.569  8.23376 13.39967-10.27165   0.058
 3.46 1.25 -4.601 -4.622 -4.601 -4.566 -4.518  8.39740 13.64991-10.02144   0.070
 3.46 1.50 -4.534 -4.554 -4.534 -4.498 -4.450  8.56229 13.90026 -9.77109   0.085
 3.46 1.75 -4.445 -4.465 -4.445 -4.410 -4.362  8.73351 14.15100 -9.52031   0.103
 3.46 2.00 -4.336 -4.356 -4.336 -4.302 -4.255  8.91062 14.40226 -9.26898   0.126
 3.46 2.25 -4.207 -4.226 -4.207 -4.175 -4.130  9.09608 14.65457 -9.01668   0.156
 3.46 2.50 -4.063 -4.080 -4.063 -4.033 -3.992  9.28825 14.90833 -8.76296   0.195
 3.46 2.75 -3.908 -3.923 -3.908 -3.881 -3.843  9.48699 15.16486 -8.50646   0.245
 3.46 3.00 -3.749 -3.762 -3.749 -3.725 -3.691  9.69073 15.42472 -8.24665   0.310
 3.46 3.20 -3.622 -3.634 -3.622 -3.601 -3.571  9.85727 15.63659 -8.03480   0.376
 3.46 3.40 -3.500 -3.510 -3.500 -3.481 -3.455 10.02532 15.85127 -7.82014   0.456
 3.46 3.60 -3.384 -3.393 -3.384 -3.368 -3.345 10.19507 16.06997 -7.60142   0.555
 3.46 3.80 -3.276 -3.284 -3.276 -3.263 -3.242 10.36537 16.29059 -7.38075   0.675
 3.46 4.00 -3.177 -3.183 -3.177 -3.165 -3.148 10.53567 16.51122 -7.16008   0.821
 3.46 4.20 -3.089 -3.094 -3.089 -3.078 -3.063 10.70349 16.73181 -6.93947   0.996
 3.46 4.40 -3.007 -3.012 -3.007 -2.998 -2.984 10.86885 16.95234 -6.71894   1.205
 3.46 4.60 -2.934 -2.938 -2.934 -2.926 -2.913 11.03076 17.17141 -6.49990   1.452
 3.46 4.80 -2.868 -2.871 -2.868 -2.860 -2.848 11.18743 17.38751 -6.28382   1.738
 3.46 5.00 -2.807 -2.810 -2.807 -2.800 -2.789 11.33925 17.60152 -6.06982   2.070
 3.46 5.20 -2.753 -2.756 -2.753 -2.746 -2.736 11.48430 17.81298 -5.85827   2.446
 3.46 5.40 -2.703 -2.707 -2.703 -2.697 -2.687 11.62416 18.02263 -5.64856   2.874
 3.46 5.60 -2.657 -2.660 -2.657 -2.651 -2.641 11.75854 18.23052 -5.44069   3.355
 3.46 5.80 -2.612 -2.615 -2.612 -2.606 -2.597 11.88871 18.43707 -5.23422   3.897
 3.46 6.00 -2.568 -2.571 -2.568 -2.562 -2.554 12.01536 18.64237 -5.02900   4.508
 3.46 6.25 -2.511 -2.514 -2.511 -2.506 -2.498 12.16957 18.89747 -4.77391   5.385
 3.46 6.50 -2.452 -2.454 -2.452 -2.447 -2.439 12.32118 19.15137 -4.51999   6.413
 3.46 6.75 -2.388 -2.390 -2.388 -2.383 -2.376 12.47126 19.40433 -4.26701   7.622
 3.46 7.00 -2.319 -2.321 -2.319 -2.314 -2.308 12.61962 19.65658 -4.01475   9.041
 3.46 7.25 -2.246 -2.248 -2.246 -2.241 -2.235 12.76659 19.90829 -3.76312  10.708
 3.46 7.50 -2.169 -2.171 -2.169 -2.165 -2.159 12.91164 20.15957 -3.51187  12.655
 3.46 7.75 -2.091 -2.093 -2.091 -2.087 -2.081 13.05401 20.41053 -3.26087  14.909
 3.46 8.00 -2.012 -2.014 -2.012 -2.008 -2.003 13.19396 20.66115 -3.01015  17.514
 3.48-2.00 -4.526 -4.534 -4.526 -4.512 -4.494  5.93682 10.37894-13.29235   0.004
 3.48-1.50 -4.525 -4.534 -4.525 -4.508 -4.486  6.41963 10.87898-12.79237   0.007
 3.48-1.00 -4.532 -4.544 -4.532 -4.513 -4.487  6.88207 11.37894-12.29234   0.012
 3.48-0.50 -4.545 -4.558 -4.545 -4.522 -4.493  7.31785 11.87898-11.79237   0.020
 3.48 0.00 -4.549 -4.565 -4.549 -4.523 -4.488  7.72460 12.37894-11.29226   0.032
 3.48 0.50 -4.530 -4.547 -4.530 -4.499 -4.459  8.09934 12.87904-10.79237   0.049
 3.48 1.00 -4.468 -4.488 -4.468 -4.434 -4.389  8.44529 13.37912-10.29217   0.072
 3.48 1.25 -4.417 -4.437 -4.417 -4.381 -4.334  8.60973 13.62922-10.04203   0.087
 3.48 1.50 -4.349 -4.369 -4.349 -4.313 -4.265  8.77291 13.87938 -9.79183   0.105
 3.48 1.75 -4.263 -4.283 -4.263 -4.228 -4.180  8.93526 14.12969 -9.54153   0.127
 3.48 2.00 -4.162 -4.181 -4.162 -4.127 -4.081  9.09760 14.38021 -9.29107   0.153
 3.48 2.25 -4.043 -4.060 -4.043 -4.010 -3.966  9.26454 14.63120 -9.04006   0.186
 3.48 2.50 -3.909 -3.926 -3.909 -3.879 -3.838  9.43600 14.88287 -8.78835   0.226
 3.48 2.75 -3.762 -3.777 -3.762 -3.735 -3.697  9.61516 15.13583 -8.53540   0.278
 3.48 3.00 -3.605 -3.618 -3.605 -3.581 -3.548  9.80127 15.39058 -8.28067   0.344
 3.48 3.20 -3.476 -3.487 -3.476 -3.454 -3.425  9.95591 15.59681 -8.07441   0.411
 3.48 3.40 -3.345 -3.355 -3.345 -3.327 -3.301 10.11454 15.80548 -7.86572   0.494
 3.48 3.60 -3.217 -3.226 -3.217 -3.201 -3.179 10.27777 16.01742 -7.65377   0.596
 3.48 3.80 -3.094 -3.101 -3.094 -3.080 -3.061 10.44380 16.23270 -7.43850   0.721
 3.48 4.00 -2.977 -2.983 -2.977 -2.965 -2.949 10.61141 16.45056 -7.22069   0.875
 3.48 4.20 -2.871 -2.876 -2.871 -2.861 -2.847 10.78037 16.67189 -6.99944   1.063
 3.48 4.40 -2.774 -2.778 -2.774 -2.765 -2.753 10.94934 16.89322 -6.77819   1.291
 3.48 4.60 -2.686 -2.690 -2.686 -2.678 -2.667 11.11698 17.11421 -6.55725   1.566
 3.48 4.80 -2.607 -2.610 -2.607 -2.600 -2.590 11.28102 17.33403 -6.33737   1.892
 3.48 5.00 -2.534 -2.538 -2.534 -2.528 -2.518 11.44201 17.55279 -6.11850   2.277
 3.48 5.20 -2.470 -2.473 -2.470 -2.464 -2.455 11.59757 17.76849 -5.90273   2.723
 3.48 5.40 -2.411 -2.414 -2.411 -2.405 -2.397 11.74816 17.98211 -5.68907   3.239
 3.48 5.60 -2.357 -2.359 -2.357 -2.352 -2.343 11.89312 18.19356 -5.47763   3.826
 3.48 5.80 -2.307 -2.309 -2.307 -2.302 -2.294 12.03252 18.40312 -5.26810   4.493
 3.48 6.00 -2.260 -2.263 -2.260 -2.255 -2.248 12.16702 18.61098 -5.06028   5.245
 3.48 6.25 -2.204 -2.206 -2.204 -2.200 -2.192 12.32841 18.86860 -4.80260   6.316
 3.48 6.50 -2.149 -2.151 -2.149 -2.144 -2.138 12.48473 19.12451 -4.54668   7.561
 3.48 6.75 -2.092 -2.094 -2.092 -2.088 -2.081 12.63696 19.37907 -4.29220   9.010
 3.48 7.00 -2.032 -2.034 -2.032 -2.028 -2.022 12.78647 19.63256 -4.03877  10.703
 3.48 7.25 -1.968 -1.970 -1.968 -1.965 -1.959 12.93423 19.88510 -3.78615  12.687
 3.48 7.50 -1.901 -1.903 -1.901 -1.897 -1.892 13.07991 20.13704 -3.53417  15.002
 3.48 7.75 -1.830 -1.832 -1.830 -1.827 -1.821 13.22347 20.38859 -3.28264  17.699
 3.48 8.00 -1.758 -1.760 -1.758 -1.755 -1.749 13.36493 20.63969 -3.03161  20.831
 3.50-2.00 -4.507 -4.513 -4.507 -4.496 -4.483  5.92670 10.35927-13.31203   0.004
 3.50-1.50 -4.496 -4.504 -4.496 -4.482 -4.465  6.42012 10.85926-12.81192   0.007
 3.50-1.00 -4.484 -4.494 -4.484 -4.467 -4.445  6.90666 11.35927-12.31203   0.012
 3.50-0.50 -4.473 -4.485 -4.473 -4.452 -4.426  7.37566 11.85932-11.81192   0.021
 3.50 0.00 -4.452 -4.466 -4.452 -4.427 -4.395  7.81875 12.35927-11.31194   0.034
 3.50 0.50 -4.402 -4.418 -4.402 -4.373 -4.334  8.23274 12.85932-10.81192   0.055
 3.50 1.00 -4.308 -4.327 -4.308 -4.275 -4.231  8.61500 13.35946-10.31194   0.086
 3.50 1.25 -4.243 -4.262 -4.243 -4.209 -4.163  8.79380 13.60948-10.06194   0.106
 3.50 1.50 -4.164 -4.184 -4.164 -4.129 -4.082  8.96628 13.85950 -9.81192   0.129
 3.50 1.75 -4.071 -4.090 -4.071 -4.037 -3.990  9.13257 14.10961 -9.56173   0.156
 3.50 2.00 -3.966 -3.984 -3.966 -3.933 -3.887  9.29623 14.35984 -9.31140   0.188
 3.50 2.25 -3.848 -3.866 -3.848 -3.817 -3.774  9.45771 14.61028 -9.06095   0.227
 3.50 2.50 -3.721 -3.737 -3.721 -3.692 -3.652  9.61920 14.86106 -8.81023   0.273
 3.50 2.75 -3.584 -3.598 -3.584 -3.557 -3.521  9.78377 15.11245 -8.55884   0.330
 3.50 3.00 -3.438 -3.451 -3.438 -3.415 -3.383  9.95177 15.36474 -8.30654   0.400
 3.50 3.20 -3.316 -3.327 -3.316 -3.295 -3.267 10.09123 15.56779 -8.10350   0.470
 3.50 3.40 -3.190 -3.200 -3.190 -3.172 -3.147 10.23503 15.77234 -7.89897   0.555
 3.50 3.60 -3.062 -3.070 -3.062 -3.046 -3.025 10.38390 15.97892 -7.69243   0.659
 3.50 3.80 -2.934 -2.941 -2.934 -2.921 -2.902 10.53788 16.18845 -7.48292   0.786
 3.50 4.00 -2.808 -2.814 -2.808 -2.797 -2.782 10.69627 16.40071 -7.27067   0.943
 3.50 4.20 -2.689 -2.694 -2.689 -2.680 -2.666 10.86040 16.61735 -7.05397   1.139
 3.50 4.40 -2.577 -2.581 -2.577 -2.569 -2.557 11.02576 16.83588 -6.83538   1.378
 3.50 4.60 -2.473 -2.477 -2.473 -2.466 -2.456 11.19234 17.05660 -6.61465   1.670
 3.50 4.80 -2.379 -2.382 -2.379 -2.373 -2.364 11.35921 17.27808 -6.39319   2.024
 3.50 5.00 -2.293 -2.296 -2.293 -2.287 -2.279 11.52608 17.49955 -6.17173   2.452
 3.50 5.20 -2.217 -2.219 -2.217 -2.212 -2.203 11.68836 17.71895 -5.95234   2.956
 3.50 5.40 -2.147 -2.149 -2.147 -2.142 -2.134 11.84700 17.93669 -5.73460   3.548
 3.50 5.60 -2.083 -2.086 -2.083 -2.079 -2.071 12.00123 18.15226 -5.51901   4.237
 3.50 5.80 -2.025 -2.027 -2.025 -2.021 -2.014 12.15002 18.36538 -5.30588   5.029
 3.50 6.00 -1.972 -1.974 -1.972 -1.967 -1.961 12.29381 18.57646 -5.09480   5.934
 3.50 6.25 -1.910 -1.912 -1.910 -1.906 -1.900 12.46540 18.83754 -4.83386   7.230
 3.50 6.50 -1.853 -1.855 -1.853 -1.849 -1.843 12.62992 19.09621 -4.57528   8.737
 3.50 6.75 -1.799 -1.800 -1.799 -1.795 -1.789 12.78783 19.35275 -4.31864  10.479
 3.50 7.00 -1.744 -1.746 -1.744 -1.740 -1.734 12.94106 19.60778 -4.06354  12.502
 3.50 7.25 -1.687 -1.689 -1.687 -1.684 -1.678 13.09064 19.86166 -3.80977  14.851
 3.50 7.50 -1.628 -1.630 -1.628 -1.625 -1.620 13.23729 20.11461 -3.55689  17.583
 3.50 7.75 -1.567 -1.568 -1.567 -1.563 -1.558 13.38179 20.36687 -3.30459  20.765
 3.50 8.00 -1.502 -1.504 -1.502 -1.499 -1.494 13.52388 20.61836 -3.05296  24.456
 3.52-2.00 -4.478 -4.482 -4.478 -4.472 -4.463  5.92737 10.33925-13.33199   0.004
 3.52-1.50 -4.476 -4.481 -4.476 -4.467 -4.455  6.41179 10.83929-12.83209   0.007
 3.52-1.00 -4.462 -4.469 -4.462 -4.449 -4.433  6.90336 11.33925-12.33199   0.012
 3.52-0.50 -4.436 -4.446 -4.436 -4.419 -4.397  7.39164 11.83929-11.83209   0.021
 3.52 0.00 -4.393 -4.405 -4.393 -4.371 -4.342  7.86593 12.33925-11.33199   0.035
 3.52 0.50 -4.316 -4.331 -4.316 -4.289 -4.253  8.31555 12.83929-10.83209   0.059
 3.52 1.00 -4.188 -4.206 -4.188 -4.157 -4.115  8.73592 13.33945-10.33199   0.096
 3.52 1.25 -4.105 -4.124 -4.105 -4.072 -4.028  8.93419 13.58943-10.08189   0.121
 3.52 1.50 -4.008 -4.027 -4.008 -3.974 -3.929  9.12450 13.83942 -9.83180   0.151
 3.52 1.75 -3.900 -3.919 -3.900 -3.867 -3.822  9.30626 14.08950 -9.58175   0.186
 3.52 2.00 -3.782 -3.800 -3.782 -3.750 -3.706  9.48116 14.33965 -9.33171   0.228
 3.52 2.25 -3.656 -3.673 -3.656 -3.626 -3.585  9.64923 14.58983 -9.08154   0.277
 3.52 2.50 -3.524 -3.540 -3.524 -3.497 -3.459  9.81371 14.84011 -8.83121   0.334
 3.52 2.75 -3.387 -3.401 -3.387 -3.363 -3.329  9.97490 15.09074 -8.58057   0.402
 3.52 3.00 -3.247 -3.259 -3.247 -3.225 -3.195 10.13609 15.34183 -8.32948   0.484
 3.52 3.20 -3.131 -3.141 -3.131 -3.111 -3.084 10.26635 15.54329 -8.12806   0.562
 3.52 3.40 -3.012 -3.022 -3.012 -2.995 -2.971 10.39816 15.74554 -7.92587   0.654
 3.52 3.60 -2.891 -2.900 -2.891 -2.877 -2.856 10.53268 15.94884 -7.72261   0.763
 3.52 3.80 -2.769 -2.775 -2.769 -2.756 -2.738 10.67188 16.15405 -7.51739   0.896
 3.52 4.00 -2.645 -2.651 -2.645 -2.634 -2.619 10.81525 16.36116 -7.31025   1.057
 3.52 4.20 -2.523 -2.528 -2.523 -2.514 -2.501 10.96476 16.57169 -7.09972   1.256
 3.52 4.40 -2.404 -2.408 -2.404 -2.397 -2.385 11.11882 16.78506 -6.88635   1.500
 3.52 4.60 -2.291 -2.294 -2.291 -2.284 -2.274 11.27898 17.00241 -6.66896   1.803
 3.52 4.80 -2.184 -2.187 -2.184 -2.178 -2.169 11.44211 17.22215 -6.44915   2.176
 3.52 5.00 -2.084 -2.087 -2.084 -2.079 -2.071 11.60563 17.44264 -6.22863   2.626
 3.52 5.20 -1.995 -1.997 -1.995 -1.990 -1.982 11.76935 17.66364 -6.00763   3.170
 3.52 5.40 -1.912 -1.914 -1.912 -1.908 -1.901 11.93308 17.88465 -5.78663   3.828
 3.52 5.60 -1.837 -1.840 -1.837 -1.833 -1.827 12.09459 18.10441 -5.56690   4.610
 3.52 5.80 -1.770 -1.772 -1.770 -1.766 -1.759 12.25086 18.32142 -5.34993   5.519
 3.52 6.00 -1.708 -1.710 -1.708 -1.704 -1.698 12.40312 18.53643 -5.13495   6.577
 3.52 6.25 -1.638 -1.640 -1.638 -1.634 -1.628 12.58558 18.80157 -4.86981   8.115
 3.52 6.50 -1.574 -1.576 -1.574 -1.571 -1.565 12.76035 19.06371 -4.60766   9.923
 3.52 6.75 -1.516 -1.518 -1.516 -1.513 -1.508 12.92699 19.32314 -4.34822  12.020
 3.52 7.00 -1.462 -1.463 -1.462 -1.458 -1.453 13.08707 19.58047 -4.09087  14.452
 3.52 7.25 -1.408 -1.410 -1.408 -1.405 -1.400 13.24115 19.83601 -3.83530  17.257
 3.52 7.50 -1.355 -1.357 -1.355 -1.352 -1.347 13.39076 20.09026 -3.58104  20.502
 3.52 7.75 -1.300 -1.302 -1.300 -1.297 -1.292 13.53714 20.34361 -3.32768  24.266
 3.52 8.00 -1.244 -1.246 -1.244 -1.241 -1.236 13.67988 20.59594 -3.07536  28.600
 3.54-2.00 -4.395 -4.397 -4.395 -4.391 -4.386  6.00604 10.31931-13.35203   0.004
 3.54-1.50 -4.431 -4.434 -4.431 -4.426 -4.418  6.43553 10.81928-12.85201   0.007
 3.54-1.00 -4.437 -4.442 -4.437 -4.429 -4.418  6.90260 11.31931-12.35203   0.011
 3.54-0.50 -4.418 -4.425 -4.418 -4.405 -4.390  7.38792 11.81928-11.85201   0.020
 3.54 0.00 -4.368 -4.378 -4.368 -4.351 -4.328  7.87576 12.31931-11.35203   0.035
 3.54 0.50 -4.272 -4.285 -4.272 -4.248 -4.218  8.35315 12.81928-10.85202   0.061
 3.54 1.00 -4.114 -4.130 -4.114 -4.085 -4.047  8.80774 13.31931-10.35193   0.102
 3.54 1.25 -4.013 -4.030 -4.013 -3.983 -3.942  9.02430 13.56933-10.10197   0.131
 3.54 1.50 -3.897 -3.915 -3.897 -3.865 -3.823  9.23325 13.81935 -9.85202   0.167
 3.54 1.75 -3.771 -3.788 -3.771 -3.739 -3.697  9.43404 14.06944 -9.60193   0.211
 3.54 2.00 -3.634 -3.652 -3.634 -3.604 -3.562  9.62675 14.31952 -9.35184   0.263
 3.54 2.25 -3.493 -3.509 -3.493 -3.464 -3.425  9.81077 14.56960 -9.10177   0.325
 3.54 2.50 -3.348 -3.363 -3.348 -3.322 -3.286  9.98758 14.81968 -8.85171   0.398
 3.54 2.75 -3.203 -3.216 -3.203 -3.179 -3.147 10.15724 15.06999 -8.60137   0.484
 3.54 3.00 -3.057 -3.068 -3.057 -3.036 -3.007 10.32263 15.32056 -8.35076   0.586
 3.54 3.20 -2.940 -2.950 -2.940 -2.921 -2.896 10.45155 15.52126 -8.15006   0.680
 3.54 3.40 -2.823 -2.832 -2.823 -2.806 -2.783 10.58047 15.72234 -7.94900   0.788
 3.54 3.60 -2.705 -2.713 -2.705 -2.690 -2.670 10.70965 15.92394 -7.74741   0.915
 3.54 3.80 -2.586 -2.593 -2.586 -2.574 -2.557 10.83990 16.12662 -7.54473   1.063
 3.54 4.00 -2.467 -2.473 -2.467 -2.457 -2.442 10.97123 16.33042 -7.34094   1.236
 3.54 4.20 -2.349 -2.354 -2.349 -2.340 -2.327 11.10704 16.53632 -7.13498   1.445
 3.54 4.40 -2.231 -2.235 -2.231 -2.223 -2.212 11.24686 16.74459 -6.92665   1.698
 3.54 4.60 -2.116 -2.119 -2.116 -2.109 -2.099 11.39184 16.95607 -6.71515   2.006
 3.54 4.80 -2.004 -2.007 -2.004 -1.998 -1.989 11.54220 17.17095 -6.50029   2.385
 3.54 5.00 -1.897 -1.899 -1.897 -1.891 -1.883 11.69688 17.38846 -6.28283   2.850
 3.54 5.20 -1.797 -1.799 -1.797 -1.792 -1.785 11.85772 17.60960 -6.06171   3.430
 3.54 5.40 -1.704 -1.706 -1.704 -1.699 -1.693 12.01857 17.83074 -5.84058   4.127
 3.54 5.60 -1.618 -1.620 -1.618 -1.614 -1.608 12.17923 18.05165 -5.61968   4.965
 3.54 5.80 -1.540 -1.542 -1.540 -1.536 -1.531 12.33907 18.27171 -5.39963   5.969
 3.54 6.00 -1.469 -1.470 -1.469 -1.465 -1.459 12.49803 18.49094 -5.18039   7.169
 3.54 6.25 -1.388 -1.390 -1.388 -1.385 -1.380 12.68918 18.76080 -4.91063   8.934
 3.54 6.50 -1.316 -1.318 -1.316 -1.313 -1.308 12.87367 19.02735 -4.64417  11.048
 3.54 6.75 -1.252 -1.253 -1.252 -1.249 -1.244 13.04983 19.29027 -4.38115  13.532
 3.54 7.00 -1.193 -1.195 -1.193 -1.190 -1.185 13.21854 19.55047 -4.12085  16.432
 3.54 7.25 -1.139 -1.140 -1.139 -1.136 -1.131 13.37959 19.80836 -3.86302  19.780
 3.54 7.50 -1.087 -1.089 -1.087 -1.084 -1.079 13.53453 20.06446 -3.60695  23.644
 3.54 7.75 -1.036 -1.038 -1.036 -1.033 -1.028 13.68457 20.31927 -3.35212  28.102
 3.54 8.00 -0.986 -0.988 -0.986 -0.983 -0.978 13.82930 20.57264 -3.09871  33.197
 3.56-2.00 -4.208 -4.209 -4.208 -4.206 -4.203  6.23553 10.29929-13.37212   0.005
 3.56-1.50 -4.307 -4.308 -4.307 -4.303 -4.299  6.57761 10.79920-12.87225   0.008
 3.56-1.00 -4.366 -4.369 -4.366 -4.361 -4.354  6.96671 11.29929-12.37212   0.012
 3.56-0.50 -4.383 -4.387 -4.383 -4.375 -4.365  7.40500 11.79920-11.87225   0.020
 3.56 0.00 -4.352 -4.359 -4.352 -4.340 -4.325  7.87656 12.29929-11.37212   0.034
 3.56 0.50 -4.260 -4.270 -4.260 -4.242 -4.220  8.36021 12.79920-10.87225   0.060
 3.56 1.00 -4.086 -4.100 -4.086 -4.062 -4.031  8.83853 13.29929-10.37202   0.104
 3.56 1.25 -3.970 -3.985 -3.970 -3.944 -3.910  9.07047 13.54928-10.12195   0.136
 3.56 1.50 -3.836 -3.852 -3.836 -3.808 -3.770  9.29645 13.79927 -9.87192   0.176
 3.56 1.75 -3.691 -3.707 -3.691 -3.663 -3.624  9.51488 14.04927 -9.62197   0.226
 3.56 2.00 -3.536 -3.552 -3.536 -3.507 -3.469  9.72575 14.29929 -9.37202   0.288
 3.56 2.25 -3.376 -3.391 -3.376 -3.349 -3.313  9.92839 14.54933 -9.12201   0.364
 3.56 2.50 -3.214 -3.228 -3.214 -3.188 -3.154 10.12287 14.79941 -8.87192   0.455
 3.56 2.75 -3.052 -3.065 -3.052 -3.030 -2.999 10.30860 15.04962 -8.62173   0.564
 3.56 3.00 -2.893 -2.905 -2.893 -2.873 -2.846 10.48686 15.29994 -8.37141   0.692
 3.56 3.20 -2.769 -2.779 -2.769 -2.751 -2.726 10.62380 15.50027 -8.17108   0.810
 3.56 3.40 -2.646 -2.654 -2.646 -2.630 -2.608 10.75779 15.70076 -7.97061   0.945
 3.56 3.60 -2.524 -2.532 -2.524 -2.510 -2.490 10.88822 15.90152 -7.76985   1.098
 3.56 3.80 -2.404 -2.411 -2.404 -2.392 -2.374 11.01733 16.10291 -7.56846   1.274
 3.56 4.00 -2.285 -2.291 -2.285 -2.275 -2.259 11.14644 16.30492 -7.36643   1.478
 3.56 4.20 -2.167 -2.172 -2.167 -2.158 -2.145 11.27608 16.50804 -7.16328   1.716
 3.56 4.40 -2.050 -2.055 -2.050 -2.043 -2.031 11.40651 16.71265 -6.95863   1.994
 3.56 4.60 -1.935 -1.939 -1.935 -1.929 -1.918 11.53923 16.91931 -6.75192   2.323
 3.56 4.80 -1.823 -1.826 -1.823 -1.817 -1.807 11.67654 17.12899 -6.54221   2.721
 3.56 5.00 -1.713 -1.716 -1.713 -1.708 -1.700 11.81770 17.34144 -6.32975   3.201
 3.56 5.20 -1.609 -1.611 -1.609 -1.604 -1.597 11.96524 17.55836 -6.11285   3.794
 3.56 5.40 -1.510 -1.512 -1.510 -1.506 -1.499 12.11644 17.77711 -5.89414   4.515
 3.56 5.60 -1.417 -1.419 -1.417 -1.413 -1.407 12.27222 17.99792 -5.67337   5.402
 3.56 5.80 -1.331 -1.333 -1.331 -1.328 -1.322 12.42985 18.21941 -5.45192   6.476
 3.56 6.00 -1.252 -1.253 -1.252 -1.248 -1.243 12.58749 18.44091 -5.23047   7.765
 3.56 6.25 -1.162 -1.163 -1.162 -1.158 -1.153 12.78230 18.71475 -4.95656   9.717
 3.56 6.50 -1.080 -1.082 -1.080 -1.077 -1.072 12.97428 18.98592 -4.68529  12.121
 3.56 6.75 -1.008 -1.009 -1.008 -1.005 -1.000 13.15852 19.25310 -4.41815  14.985
 3.56 7.00 -0.943 -0.944 -0.943 -0.939 -0.935 13.33586 19.51707 -4.15422  18.378
 3.56 7.25 -0.884 -0.885 -0.884 -0.881 -0.876 13.50500 19.77780 -3.89338  22.329
 3.56 7.50 -0.830 -0.832 -0.830 -0.827 -0.822 13.66699 20.03623 -3.63489  26.908
 3.56 7.75 -0.780 -0.782 -0.780 -0.777 -0.772 13.82242 20.29300 -3.37815  32.181
 3.56 8.00 -0.733 -0.734 -0.733 -0.729 -0.724 13.97109 20.54790 -3.12338  38.189
 3.58-2.00 -3.939 -3.940 -3.939 -3.937 -3.935  6.56679 10.27921-13.39212   0.007
 3.58-1.50 -4.083 -4.085 -4.083 -4.081 -4.078  6.85649 10.77916-12.89211   0.010
 3.58-1.00 -4.200 -4.202 -4.200 -4.197 -4.192  7.17026 11.27921-12.39212   0.015
 3.58-0.50 -4.278 -4.280 -4.278 -4.273 -4.266  7.52231 11.77924-11.89211   0.022
 3.58 0.00 -4.299 -4.303 -4.299 -4.292 -4.281  7.92454 12.27921-11.39212   0.035
 3.58 0.50 -4.243 -4.249 -4.243 -4.231 -4.216  8.37310 12.77924-10.89211   0.059
 3.58 1.00 -4.085 -4.094 -4.085 -4.068 -4.046  8.84708 13.27921-10.39201   0.102
 3.58 1.25 -3.965 -3.977 -3.965 -3.946 -3.920  9.08517 13.52922-10.14206   0.134
 3.58 1.50 -3.822 -3.834 -3.822 -3.800 -3.771  9.32325 13.77924 -9.89211   0.177
 3.58 1.75 -3.662 -3.675 -3.662 -3.638 -3.607  9.55553 14.02922 -9.64206   0.231
 3.58 2.00 -3.488 -3.502 -3.488 -3.464 -3.431  9.78254 14.27921 -9.39201   0.300
 3.58 2.25 -3.310 -3.323 -3.310 -3.286 -3.254 10.00191 14.52924 -9.14206   0.386
 3.58 2.50 -3.128 -3.141 -3.128 -3.105 -3.075 10.21378 14.77931 -8.89211   0.493
 3.58 2.75 -2.949 -2.961 -2.949 -2.928 -2.900 10.41739 15.02946 -8.64193   0.623
 3.58 3.00 -2.773 -2.784 -2.773 -2.753 -2.727 10.61278 15.27967 -8.39169   0.781
 3.58 3.20 -2.635 -2.645 -2.635 -2.618 -2.594 10.76263 15.47984 -8.19149   0.928
 3.58 3.40 -2.501 -2.510 -2.501 -2.485 -2.463 10.90763 15.68005 -7.99124   1.097
 3.58 3.60 -2.370 -2.378 -2.370 -2.356 -2.336 11.04741 15.88040 -7.79087   1.289
 3.58 3.80 -2.242 -2.249 -2.242 -2.230 -2.212 11.18331 16.08112 -7.59016   1.507
 3.58 4.00 -2.117 -2.123 -2.117 -2.106 -2.091 11.31618 16.28217 -7.38913   1.756
 3.58 4.20 -1.995 -2.000 -1.995 -1.986 -1.972 11.44554 16.48380 -7.18749   2.038
 3.58 4.40 -1.875 -1.880 -1.875 -1.867 -1.855 11.57491 16.68631 -6.98498   2.365
 3.58 4.60 -1.758 -1.762 -1.758 -1.751 -1.740 11.70443 16.89000 -6.78128   2.745
 3.58 4.80 -1.643 -1.646 -1.643 -1.637 -1.627 11.83471 17.09578 -6.57550   3.190
 3.58 5.00 -1.531 -1.534 -1.531 -1.526 -1.517 11.96577 17.30363 -6.36764   3.709
 3.58 5.20 -1.423 -1.426 -1.423 -1.418 -1.411 12.10151 17.51514 -6.15614   4.337
 3.58 5.40 -1.320 -1.323 -1.320 -1.316 -1.309 12.24090 17.72949 -5.94180   5.092
 3.58 5.60 -1.223 -1.225 -1.223 -1.219 -1.213 12.38522 17.94783 -5.72342   6.012
 3.58 5.80 -1.133 -1.135 -1.133 -1.129 -1.124 12.53366 18.16822 -5.50300   7.133
 3.58 6.00 -1.049 -1.050 -1.049 -1.045 -1.040 12.68467 18.38881 -5.28241   8.487
 3.58 6.25 -0.952 -0.953 -0.952 -0.948 -0.943 12.87680 18.66469 -5.00657  10.587
 3.58 6.50 -0.863 -0.865 -0.863 -0.860 -0.855 13.06893 18.94057 -4.73072  13.207
 3.58 6.75 -0.784 -0.785 -0.784 -0.780 -0.775 13.25701 19.21197 -4.45934  16.401
 3.58 7.00 -0.712 -0.713 -0.712 -0.708 -0.704 13.44091 19.48015 -4.19118  20.272
 3.58 7.25 -0.647 -0.649 -0.647 -0.644 -0.639 13.61722 19.74455 -3.92682  24.833
 3.58 7.50 -0.589 -0.591 -0.589 -0.586 -0.581 13.78654 20.00604 -3.66535  30.176
 3.58 7.75 -0.537 -0.539 -0.537 -0.534 -0.529 13.94820 20.26518 -3.40617  36.348
 3.58 8.00 -0.490 -0.491 -0.490 -0.486 -0.481 14.10243 20.52179 -3.14948  43.411
 3.60-2.00 -3.627 -3.629 -3.627 -3.626 -3.623  6.93379 10.25912-13.41229   0.011
 3.60-1.50 -3.800 -3.801 -3.800 -3.798 -3.794  7.20167 10.75914-12.91222   0.015
 3.60-1.00 -3.953 -3.954 -3.953 -3.950 -3.946  7.47929 11.25912-12.41207   0.021
 3.60-0.50 -4.078 -4.080 -4.078 -4.074 -4.069  7.77371 11.75921-11.91222   0.029
 3.60 0.00 -4.158 -4.161 -4.158 -4.153 -4.145  8.09691 12.25936-11.41207   0.042
 3.60 0.50 -4.165 -4.169 -4.165 -4.157 -4.146  8.46374 12.75921-10.91222   0.064
 3.60 1.00 -4.059 -4.066 -4.059 -4.048 -4.033  8.88167 13.25935-10.41206   0.104
 3.60 1.25 -3.957 -3.965 -3.957 -3.944 -3.926  9.10774 13.50928-10.16214   0.135
 3.60 1.50 -3.823 -3.832 -3.823 -3.808 -3.787  9.33866 13.75922 -9.91222   0.176
 3.60 1.75 -3.663 -3.673 -3.663 -3.646 -3.623  9.57360 14.00929 -9.66215   0.231
 3.60 2.00 -3.482 -3.493 -3.482 -3.464 -3.439  9.80855 14.25936 -9.41206   0.302
 3.60 2.25 -3.291 -3.301 -3.291 -3.271 -3.246 10.03967 14.50932 -9.16196   0.394
 3.60 2.50 -3.092 -3.103 -3.092 -3.073 -3.047 10.26670 14.75929 -8.91186   0.513
 3.60 2.75 -2.895 -2.906 -2.895 -2.877 -2.852 10.48604 15.00930 -8.66185   0.660
 3.60 3.00 -2.700 -2.710 -2.700 -2.682 -2.658 10.69810 15.25936 -8.41184   0.842
 3.60 3.20 -2.548 -2.558 -2.548 -2.532 -2.509 10.86184 15.45946 -8.21176   1.017
 3.60 3.40 -2.400 -2.409 -2.400 -2.384 -2.363 11.02033 15.65963 -8.01161   1.220
 3.60 3.60 -2.255 -2.263 -2.255 -2.241 -2.221 11.17317 15.85987 -7.81139   1.455
 3.60 3.80 -2.115 -2.123 -2.115 -2.103 -2.085 11.32066 16.06025 -7.61103   1.725
 3.60 4.00 -1.980 -1.986 -1.980 -1.968 -1.952 11.46330 16.26079 -7.41050   2.033
 3.60 4.20 -1.848 -1.854 -1.848 -1.838 -1.823 11.60082 16.46166 -7.20959   2.381
 3.60 4.40 -1.721 -1.726 -1.721 -1.712 -1.698 11.73537 16.66302 -7.00818   2.780
 3.60 4.60 -1.597 -1.601 -1.597 -1.589 -1.577 11.86639 16.86504 -6.80615   3.233
 3.60 4.80 -1.477 -1.480 -1.477 -1.470 -1.459 11.99610 17.06835 -6.60291   3.754
 3.60 5.00 -1.360 -1.363 -1.360 -1.354 -1.344 12.12581 17.27300 -6.39838   4.359
 3.60 5.20 -1.247 -1.250 -1.247 -1.242 -1.233 12.25628 17.48013 -6.19119   5.066
 3.60 5.40 -1.139 -1.141 -1.139 -1.134 -1.127 12.38779 17.68984 -5.98138   5.893
 3.60 5.60 -1.037 -1.039 -1.037 -1.032 -1.026 12.52186 17.90311 -5.76811   6.876
 3.60 5.80 -0.941 -0.943 -0.941 -0.937 -0.931 12.66009 18.11966 -5.55164   8.062
 3.60 6.00 -0.853 -0.854 -0.853 -0.849 -0.843 12.80147 18.33846 -5.33292   9.488
 3.60 6.25 -0.751 -0.753 -0.751 -0.748 -0.742 12.98442 18.61522 -5.05614  11.714
 3.60 6.50 -0.659 -0.661 -0.659 -0.655 -0.650 13.16909 18.89198 -4.77937  14.489
 3.60 6.75 -0.575 -0.576 -0.575 -0.571 -0.566 13.35496 19.16673 -4.50459  17.945
 3.60 7.00 -0.498 -0.499 -0.498 -0.494 -0.489 13.54083 19.43933 -4.23195  22.225
 3.60 7.25 -0.428 -0.430 -0.428 -0.425 -0.420 13.72102 19.70765 -3.96360  27.348
 3.60 7.50 -0.366 -0.368 -0.366 -0.362 -0.357 13.89603 19.97271 -3.69854  33.453
 3.60 7.75 -0.310 -0.312 -0.310 -0.307 -0.301 14.06323 20.23482 -3.43647  40.554
 3.60 8.00 -0.261 -0.263 -0.261 -0.257 -0.251 14.22350 20.49388 -3.17751  48.773
 3.62-2.00 -3.295 -3.297 -3.295 -3.293 -3.289  7.30643 10.23880-13.43262   0.017
 3.62-1.50 -3.487 -3.489 -3.487 -3.485 -3.481  7.56549 10.73894-12.93256   0.022
 3.62-1.00 -3.663 -3.665 -3.663 -3.660 -3.656  7.82834 11.23905-12.43227   0.030
 3.62-0.50 -3.817 -3.819 -3.817 -3.813 -3.808  8.09795 11.73910-11.93219   0.041
 3.62 0.00 -3.934 -3.936 -3.934 -3.929 -3.923  8.37949 12.23930-11.43215   0.057
 3.62 0.50 -3.990 -3.993 -3.990 -3.984 -3.975  8.68223 12.73918-10.93219   0.081
 3.62 1.00 -3.948 -3.953 -3.948 -3.940 -3.929  9.01953 13.23930-10.43215   0.119
 3.62 1.25 -3.880 -3.886 -3.880 -3.871 -3.857  9.20620 13.48924-10.18217   0.148
 3.62 1.50 -3.778 -3.784 -3.778 -3.767 -3.752  9.40483 13.73918 -9.93219   0.186
 3.62 1.75 -3.641 -3.648 -3.641 -3.629 -3.612  9.61722 13.98924 -9.68211   0.237
 3.62 2.00 -3.477 -3.484 -3.477 -3.463 -3.445  9.83784 14.23930 -9.43203   0.306
 3.62 2.25 -3.290 -3.298 -3.290 -3.275 -3.255 10.06692 14.48928 -9.18211   0.398
 3.62 2.50 -3.089 -3.098 -3.089 -3.073 -3.053 10.29601 14.73925 -8.93219   0.518
 3.62 2.75 -2.881 -2.890 -2.881 -2.866 -2.844 10.52386 14.98926 -8.68212   0.673
 3.62 3.00 -2.672 -2.681 -2.672 -2.656 -2.635 10.74989 15.23930 -8.43203   0.874
 3.62 3.20 -2.507 -2.515 -2.507 -2.492 -2.471 10.92504 15.43935 -8.23196   1.069
 3.62 3.40 -2.344 -2.353 -2.344 -2.330 -2.309 11.09581 15.63944 -8.03187   1.301
 3.62 3.60 -2.186 -2.194 -2.186 -2.172 -2.152 11.26179 15.83956 -7.83174   1.575
 3.62 3.80 -2.032 -2.039 -2.032 -2.019 -2.000 11.42240 16.03976 -7.63152   1.895
 3.62 4.00 -1.882 -1.889 -1.882 -1.870 -1.853 11.57784 16.24005 -7.43121   2.266
 3.62 4.20 -1.738 -1.744 -1.738 -1.727 -1.711 11.72740 16.44051 -7.23075   2.692
 3.62 4.40 -1.599 -1.604 -1.599 -1.589 -1.574 11.87219 16.64124 -7.03004   3.181
 3.62 4.60 -1.465 -1.469 -1.465 -1.456 -1.442 12.01176 16.84232 -6.82897   3.735
 3.62 4.80 -1.335 -1.339 -1.335 -1.327 -1.315 12.14764 17.04413 -6.62712   4.367
 3.62 5.00 -1.210 -1.213 -1.210 -1.203 -1.192 12.28081 17.24674 -6.42447   5.091
 3.62 5.20 -1.089 -1.092 -1.089 -1.084 -1.074 12.41108 17.45098 -6.22028   5.915
 3.62 5.40 -0.974 -0.976 -0.974 -0.969 -0.961 12.54135 17.65715 -6.01420   6.872
 3.62 5.60 -0.865 -0.867 -0.865 -0.860 -0.853 12.67204 17.86588 -5.80554   7.988
 3.62 5.80 -0.762 -0.764 -0.762 -0.758 -0.751 12.80411 18.07787 -5.59356   9.300
 3.62 6.00 -0.667 -0.669 -0.667 -0.663 -0.657 12.93747 18.29270 -5.37872  10.843
 3.62 6.25 -0.559 -0.561 -0.559 -0.555 -0.549 13.10953 18.56695 -5.10438  13.218
 3.62 6.50 -0.462 -0.464 -0.462 -0.458 -0.452 13.28511 18.84242 -4.82886  16.179
 3.62 6.75 -0.375 -0.377 -0.375 -0.371 -0.365 13.46502 19.11870 -4.55258  19.903
 3.62 7.00 -0.296 -0.297 -0.296 -0.292 -0.286 13.64493 19.39498 -4.27630  24.484
 3.62 7.25 -0.224 -0.226 -0.224 -0.220 -0.214 13.82372 19.66713 -4.00418  30.080
 3.62 7.50 -0.158 -0.160 -0.158 -0.154 -0.149 14.00087 19.93616 -3.73518  36.886
 3.62 7.75 -0.100 -0.102 -0.100 -0.095 -0.090 14.17121 20.20160 -3.46976  44.878
 3.62 8.00 -0.047 -0.049 -0.047 -0.043 -0.037 14.33646 20.46359 -3.20775  54.283
 3.64-2.00 -2.953 -2.955 -2.953 -2.950 -2.946  7.66997 10.21801-13.45321   0.025
 3.64-1.50 -3.160 -3.162 -3.160 -3.157 -3.152  7.92521 10.71859-12.95273   0.033
 3.64-1.00 -3.353 -3.355 -3.353 -3.350 -3.344  8.18213 11.21880-12.45247   0.044
 3.64-0.50 -3.526 -3.528 -3.526 -3.522 -3.516  8.44154 11.71900-11.95234   0.060
 3.64 0.00 -3.666 -3.668 -3.666 -3.661 -3.654  8.70586 12.21906-11.45210   0.081
 3.64 0.50 -3.749 -3.752 -3.749 -3.743 -3.735  8.97905 12.71917-10.95195   0.111
 3.64 1.00 -3.745 -3.749 -3.745 -3.738 -3.728  9.26788 13.21932-10.45210   0.155
 3.64 1.25 -3.703 -3.707 -3.703 -3.695 -3.683  9.42165 13.46929-10.20203   0.185
 3.64 1.50 -3.631 -3.636 -3.631 -3.623 -3.610  9.58354 13.71925 -9.95195   0.223
 3.64 1.75 -3.530 -3.535 -3.530 -3.520 -3.506  9.75629 13.96929 -9.70196   0.272
 3.64 2.00 -3.400 -3.406 -3.400 -3.389 -3.374  9.94022 14.21932 -9.45198   0.336
 3.64 2.25 -3.244 -3.251 -3.244 -3.232 -3.216 10.13795 14.46929 -9.20196   0.422
 3.64 2.50 -3.066 -3.074 -3.066 -3.054 -3.036 10.34596 14.71925 -8.95195   0.536
 3.64 2.75 -2.871 -2.878 -2.871 -2.857 -2.839 10.56547 14.96928 -8.70196   0.690
 3.64 3.00 -2.664 -2.672 -2.664 -2.650 -2.631 10.78703 15.21932 -8.45198   0.891
 3.64 3.20 -2.495 -2.502 -2.495 -2.481 -2.461 10.96532 15.41936 -8.25198   1.094
 3.64 3.40 -2.324 -2.332 -2.324 -2.310 -2.291 11.14360 15.61939 -8.05196   1.344
 3.64 3.60 -2.155 -2.163 -2.155 -2.141 -2.122 11.31979 15.81947 -7.85191   1.646
 3.64 3.80 -1.989 -1.997 -1.989 -1.976 -1.958 11.49098 16.01963 -7.65179   2.004
 3.64 4.00 -1.827 -1.834 -1.827 -1.814 -1.796 11.65830 16.21985 -7.45161   2.430
 3.64 4.20 -1.669 -1.676 -1.669 -1.657 -1.641 11.82013 16.42009 -7.25138   2.928
 3.64 4.40 -1.516 -1.522 -1.516 -1.505 -1.490 11.97694 16.62044 -7.05101   3.507
 3.64 4.60 -1.369 -1.374 -1.369 -1.359 -1.345 12.12827 16.82098 -6.85042   4.174
 3.64 4.80 -1.227 -1.231 -1.227 -1.218 -1.205 12.27448 17.02200 -6.64931   4.939
 3.64 5.00 -1.090 -1.094 -1.090 -1.083 -1.071 12.41614 17.22350 -6.44770   5.814
 3.64 5.20 -0.960 -0.963 -0.960 -0.953 -0.942 12.55280 17.42595 -6.24525   6.805
 3.64 5.40 -0.834 -0.837 -0.834 -0.829 -0.819 12.68721 17.62966 -6.04159   7.944
 3.64 5.60 -0.716 -0.718 -0.716 -0.711 -0.702 12.81914 17.83504 -5.83626   9.247
 3.64 5.80 -0.604 -0.607 -0.604 -0.600 -0.592 12.95024 18.04305 -5.62825  10.752
 3.64 6.00 -0.500 -0.502 -0.500 -0.495 -0.488 13.08135 18.25358 -5.41771  12.503
 3.64 6.25 -0.381 -0.383 -0.381 -0.377 -0.370 13.24713 18.52244 -5.14879  15.133
 3.64 6.50 -0.276 -0.278 -0.276 -0.272 -0.265 13.41481 18.79505 -4.87615  18.358
 3.64 6.75 -0.183 -0.185 -0.183 -0.179 -0.172 13.58664 19.07177 -4.59945  22.374
 3.64 7.00 -0.101 -0.103 -0.101 -0.096 -0.090 13.75967 19.34850 -4.32276  27.307
 3.64 7.25 -0.027 -0.030 -0.027 -0.023 -0.017 13.93361 19.62353 -4.04777  33.363
 3.64 7.50  0.038  0.036  0.038  0.042  0.049 14.10755 19.89664 -3.77469  40.762
 3.64 7.75  0.098  0.095  0.098  0.102  0.109 14.27740 20.16556 -3.50580  49.564
 3.64 8.00  0.151  0.149  0.151  0.156  0.163 14.44451 20.43104 -3.24033  60.075
 3.66-2.00 -2.608 -2.610 -2.608 -2.605 -2.600  8.02243 10.19645-13.47496   0.036
 3.66-1.50 -2.827 -2.829 -2.827 -2.823 -2.817  8.27600 10.69758-12.97388   0.048
 3.66-1.00 -3.033 -3.036 -3.033 -3.029 -3.023  8.53033 11.19838-12.47302   0.065
 3.66-0.50 -3.221 -3.224 -3.221 -3.217 -3.210  8.78561 11.69871-11.97265   0.087
 3.66 0.00 -3.378 -3.381 -3.378 -3.373 -3.365  9.04297 12.19893-11.47237   0.117
 3.66 0.50 -3.479 -3.482 -3.479 -3.473 -3.464  9.30363 12.69906-10.97224   0.158
 3.66 1.00 -3.495 -3.499 -3.495 -3.487 -3.477  9.57113 13.19921-10.47211   0.215
 3.66 1.25 -3.465 -3.469 -3.465 -3.457 -3.445  9.70891 13.44917-10.22218   0.252
 3.66 1.50 -3.409 -3.414 -3.409 -3.400 -3.388  9.85046 13.69914 -9.97224   0.296
 3.66 1.75 -3.328 -3.334 -3.328 -3.319 -3.306  9.99725 13.94918 -9.72218   0.351
 3.66 2.00 -3.226 -3.231 -3.226 -3.216 -3.201 10.15045 14.19921 -9.47211   0.419
 3.66 2.25 -3.102 -3.108 -3.102 -3.091 -3.075 10.31248 14.44922 -9.22218   0.505
 3.66 2.50 -2.959 -2.966 -2.959 -2.948 -2.931 10.48416 14.69923 -8.97224   0.614
 3.66 2.75 -2.798 -2.805 -2.798 -2.785 -2.768 10.66826 14.94922 -8.72211   0.759
 3.66 3.00 -2.620 -2.627 -2.620 -2.607 -2.589 10.86309 15.19921 -8.47198   0.951
 3.66 3.20 -2.466 -2.473 -2.466 -2.453 -2.434 11.02853 15.39924 -8.27191   1.150
 3.66 3.40 -2.305 -2.313 -2.305 -2.291 -2.273 11.19725 15.59929 -8.07185   1.396
 3.66 3.60 -2.139 -2.146 -2.139 -2.125 -2.107 11.36955 15.79934 -7.87184   1.703
 3.66 3.80 -1.970 -1.978 -1.970 -1.957 -1.938 11.54294 15.99940 -7.67185   2.079
 3.66 4.00 -1.801 -1.809 -1.801 -1.788 -1.770 11.71634 16.19948 -7.47186   2.539
 3.66 4.20 -1.634 -1.641 -1.634 -1.622 -1.605 11.88607 16.39963 -7.27177   3.087
 3.66 4.40 -1.470 -1.477 -1.470 -1.459 -1.442 12.05268 16.59986 -7.07157   3.740
 3.66 4.60 -1.311 -1.316 -1.311 -1.300 -1.284 12.21529 16.80021 -6.87121   4.510
 3.66 4.80 -1.156 -1.161 -1.156 -1.146 -1.132 12.37272 17.00080 -6.67054   5.405
 3.66 5.00 -1.006 -1.011 -1.006 -0.998 -0.984 12.52543 17.20167 -6.46954   6.443
 3.66 5.20 -0.863 -0.867 -0.863 -0.856 -0.844 12.67236 17.40310 -6.26811   7.631
 3.66 5.40 -0.726 -0.729 -0.726 -0.719 -0.709 12.81510 17.60532 -6.06593   8.994
 3.66 5.60 -0.596 -0.599 -0.596 -0.590 -0.580 12.95320 17.80856 -5.86273  10.544
 3.66 5.80 -0.474 -0.476 -0.474 -0.468 -0.459 13.08846 18.01366 -5.65762  12.320
 3.66 6.00 -0.358 -0.361 -0.358 -0.353 -0.345 13.22194 18.22063 -5.45063  14.366
 3.66 6.25 -0.227 -0.229 -0.227 -0.222 -0.214 13.38675 18.48407 -5.18723  17.369
 3.66 6.50 -0.109 -0.111 -0.109 -0.104 -0.097 13.55157 18.75197 -4.91937  20.999
 3.66 6.75 -0.006 -0.008 -0.006 -0.001  0.006 13.71812 19.02621 -4.64516  25.437
 3.66 7.00  0.083  0.081  0.083  0.088  0.095 13.88559 19.30168 -4.36967  30.846
 3.66 7.25  0.160  0.158  0.160  0.165  0.172 14.05415 19.57796 -4.09334  37.453
 3.66 7.50  0.228  0.225  0.228  0.233  0.240 14.22272 19.85425 -3.81701  45.474
 3.66 7.75  0.287  0.285  0.287  0.292  0.300 14.38909 20.12635 -3.54492  55.075
 3.66 8.00  0.341  0.338  0.341  0.346  0.354 14.55400 20.39568 -3.27564  66.592
 3.68-2.00 -2.267 -2.269 -2.267 -2.263 -2.257  8.35793 10.17260-13.49867   0.052
 3.68-1.50 -2.493 -2.495 -2.493 -2.489 -2.482  8.61215 10.67550-12.99568   0.070
 3.68-1.00 -2.710 -2.712 -2.710 -2.705 -2.698  8.86581 11.17725-12.49417   0.093
 3.68-0.50 -2.910 -2.913 -2.910 -2.904 -2.896  9.11959 11.67806-11.99311   0.125
 3.68 0.00 -3.081 -3.084 -3.081 -3.074 -3.065  9.37383 12.17869-11.49268   0.167
 3.68 0.50 -3.197 -3.201 -3.197 -3.189 -3.179  9.62951 12.67888-10.99225   0.224
 3.68 1.00 -3.226 -3.231 -3.226 -3.218 -3.206  9.88795 13.17898-10.49228   0.302
 3.68 1.25 -3.203 -3.208 -3.203 -3.194 -3.181 10.01884 13.42907-10.24227   0.351
 3.68 1.50 -3.155 -3.160 -3.155 -3.145 -3.132 10.15137 13.67916 -9.99225   0.409
 3.68 1.75 -3.084 -3.090 -3.084 -3.074 -3.059 10.28637 13.92922 -9.74220   0.478
 3.68 2.00 -2.994 -3.000 -2.994 -2.983 -2.968 10.42439 14.17927 -9.49214   0.561
 3.68 2.25 -2.887 -2.894 -2.887 -2.876 -2.860 10.56648 14.42926 -9.24220   0.661
 3.68 2.50 -2.767 -2.774 -2.767 -2.755 -2.739 10.71366 14.67925 -8.99225   0.782
 3.68 2.75 -2.634 -2.641 -2.634 -2.621 -2.604 10.86791 14.92926 -8.74213   0.934
 3.68 3.00 -2.488 -2.495 -2.488 -2.475 -2.457 11.03020 15.17927 -8.49201   1.126
 3.68 3.20 -2.361 -2.368 -2.361 -2.347 -2.329 11.16766 15.37926 -8.29192   1.319
 3.68 3.40 -2.226 -2.233 -2.226 -2.212 -2.193 11.31158 15.57925 -8.09186   1.557
 3.68 3.60 -2.082 -2.090 -2.082 -2.068 -2.049 11.46324 15.77931 -7.89184   1.854
 3.68 3.80 -1.930 -1.937 -1.930 -1.916 -1.897 11.62107 15.97943 -7.69186   2.223
 3.68 4.00 -1.772 -1.779 -1.772 -1.758 -1.739 11.78326 16.17955 -7.49188   2.680
 3.68 4.20 -1.608 -1.616 -1.608 -1.595 -1.577 11.95030 16.37961 -7.29174   3.248
 3.68 4.40 -1.443 -1.450 -1.443 -1.431 -1.413 12.11733 16.57967 -7.09153   3.936
 3.68 4.60 -1.278 -1.284 -1.278 -1.267 -1.250 12.28365 16.77981 -6.89128   4.766
 3.68 4.80 -1.115 -1.121 -1.115 -1.104 -1.089 12.44767 16.98016 -6.69096   5.757
 3.68 5.00 -0.955 -0.960 -0.955 -0.945 -0.931 12.60960 17.18070 -6.49053   6.938
 3.68 5.20 -0.800 -0.804 -0.800 -0.791 -0.778 12.76623 17.38153 -6.28972   8.309
 3.68 5.40 -0.650 -0.654 -0.650 -0.643 -0.631 12.91862 17.58284 -6.08842   9.903
 3.68 5.60 -0.508 -0.511 -0.508 -0.501 -0.490 13.06612 17.78480 -5.88649  11.736
 3.68 5.80 -0.373 -0.376 -0.373 -0.367 -0.357 13.20922 17.98803 -5.68332  13.838
 3.68 6.00 -0.246 -0.248 -0.246 -0.240 -0.231 13.34869 18.19257 -5.47886  16.249
 3.68 6.25 -0.100 -0.102 -0.100 -0.094 -0.085 13.51808 18.45159 -5.21976  19.746
 3.68 6.50  0.032  0.029  0.032  0.037  0.046 13.68520 18.71458 -4.95664  23.935
 3.68 6.75  0.149  0.146  0.149  0.154  0.163 13.85074 18.98383 -4.68747  28.961
 3.68 7.00  0.250  0.248  0.250  0.256  0.264 14.01578 19.25672 -4.41465  35.023
 3.68 7.25  0.336  0.334  0.336  0.341  0.350 14.18072 19.53348 -4.13786  42.348
 3.68 7.50  0.409  0.406  0.409  0.414  0.423 14.34518 19.81023 -3.86107  51.175
 3.68 7.75  0.470  0.467  0.470  0.476  0.484 14.50766 20.08481 -3.58648  61.699
 3.68 8.00  0.523  0.521  0.523  0.529  0.538 14.66867 20.35793 -3.31336  74.259
 3.70-2.00 -1.932 -1.934 -1.932 -1.928 -1.921  8.67624 10.14489-13.52651   0.073
 3.70-1.50 -2.163 -2.166 -2.163 -2.158 -2.151  8.93359 10.65099-13.02032   0.098
 3.70-1.00 -2.386 -2.389 -2.386 -2.381 -2.373  9.18837 11.15473-12.51670   0.132
 3.70-0.50 -2.595 -2.599 -2.595 -2.589 -2.581  9.44201 11.65658-12.01471   0.177
 3.70 0.00 -2.778 -2.781 -2.778 -2.771 -2.761  9.69531 12.15776-11.51357   0.237
 3.70 0.50 -2.908 -2.912 -2.908 -2.900 -2.888  9.94895 12.65839-11.01291   0.317
 3.70 1.00 -2.951 -2.956 -2.951 -2.942 -2.928 10.20358 13.15866-10.51258   0.425
 3.70 1.25 -2.933 -2.939 -2.933 -2.923 -2.909 10.33165 13.40882-10.26248   0.492
 3.70 1.50 -2.890 -2.896 -2.890 -2.880 -2.865 10.46045 13.65897-10.01238   0.571
 3.70 1.75 -2.825 -2.832 -2.825 -2.814 -2.798 10.59027 13.90897 -9.76227   0.663
 3.70 2.00 -2.742 -2.749 -2.742 -2.730 -2.714 10.72140 14.15897 -9.51216   0.771
 3.70 2.25 -2.644 -2.651 -2.644 -2.632 -2.615 10.85436 14.40906 -9.26216   0.899
 3.70 2.50 -2.535 -2.542 -2.535 -2.522 -2.504 10.98967 14.65916 -9.01215   1.050
 3.70 2.75 -2.416 -2.424 -2.416 -2.403 -2.384 11.12834 14.90922 -8.76215   1.232
 3.70 3.00 -2.289 -2.296 -2.289 -2.275 -2.256 11.27114 15.15927 -8.51216   1.452
 3.70 3.20 -2.180 -2.188 -2.180 -2.166 -2.146 11.38942 15.35926 -8.31214   1.664
 3.70 3.40 -2.066 -2.074 -2.066 -2.052 -2.032 11.51197 15.55925 -8.11212   1.916
 3.70 3.60 -1.946 -1.954 -1.946 -1.931 -1.911 11.63940 15.75925 -7.91210   2.219
 3.70 3.80 -1.818 -1.826 -1.818 -1.804 -1.784 11.77279 15.95925 -7.71206   2.587
 3.70 4.00 -1.684 -1.692 -1.684 -1.670 -1.650 11.91190 16.15927 -7.51201   3.036
 3.70 4.20 -1.541 -1.549 -1.541 -1.527 -1.508 12.05856 16.35931 -7.31196   3.595
 3.70 4.40 -1.392 -1.400 -1.392 -1.379 -1.360 12.20992 16.55939 -7.11189   4.279
 3.70 4.60 -1.238 -1.244 -1.238 -1.225 -1.207 12.36719 16.75953 -6.91176   5.128
 3.70 4.80 -1.079 -1.085 -1.079 -1.067 -1.050 12.52687 16.95979 -6.71152   6.164
 3.70 5.00 -0.918 -0.924 -0.918 -0.908 -0.891 12.68655 17.16017 -6.51117   7.408
 3.70 5.20 -0.759 -0.763 -0.759 -0.749 -0.734 12.84566 17.36068 -6.31067   8.897
 3.70 5.40 -0.601 -0.605 -0.601 -0.592 -0.579 13.00395 17.56143 -6.10992  10.676
 3.70 5.60 -0.448 -0.452 -0.448 -0.441 -0.429 13.15963 17.76257 -5.90876  12.772
 3.70 5.80 -0.303 -0.306 -0.303 -0.296 -0.284 13.31063 17.96452 -5.70676  15.197
 3.70 6.00 -0.163 -0.165 -0.163 -0.156 -0.146 13.45803 18.16732 -5.50390  18.008
 3.70 6.25 -0.002 -0.005 -0.002  0.003  0.013 13.63596 18.42322 -5.24811  22.101
 3.70 6.50  0.145  0.142  0.145  0.151  0.161 13.80909 18.68224 -4.98928  26.975
 3.70 6.75  0.278  0.275  0.278  0.284  0.294 13.97797 18.94645 -4.72498  32.768
 3.70 7.00  0.394  0.392  0.394  0.400  0.410 14.14426 19.21511 -4.45618  39.684
 3.70 7.25  0.493  0.490  0.493  0.499  0.509 14.30907 19.49002 -4.18117  47.973
 3.70 7.50  0.575  0.573  0.575  0.582  0.591 14.47173 19.76567 -3.90553  57.849
 3.70 7.75  0.643  0.640  0.643  0.649  0.658 14.63186 20.04156 -3.62969  69.558
 3.70 8.00  0.698  0.695  0.698  0.705  0.715 14.78958 20.31785 -3.35350  83.407
 3.73-2.00 -1.449 -1.451 -1.449 -1.444 -1.437  9.10619 10.08600-13.58519   0.116
 3.73-1.50 -1.681 -1.684 -1.681 -1.676 -1.668  9.37749 10.60423-13.06702   0.159
 3.73-1.00 -1.908 -1.911 -1.908 -1.903 -1.894  9.63959 11.11494-12.55627   0.214
 3.73-0.50 -2.124 -2.127 -2.124 -2.118 -2.108  9.89686 11.62118-12.05017   0.288
 3.73 0.00 -2.317 -2.321 -2.317 -2.310 -2.299 10.15168 12.12483-11.54653   0.387
 3.73 0.50 -2.464 -2.469 -2.464 -2.455 -2.443 10.40500 12.62665-11.04465   0.517
 3.73 1.00 -2.529 -2.534 -2.529 -2.518 -2.503 10.65801 13.12775-10.54348   0.693
 3.73 1.25 -2.521 -2.527 -2.521 -2.510 -2.494 10.78459 13.37812-10.29315   0.802
 3.73 1.50 -2.488 -2.494 -2.488 -2.476 -2.459 10.91126 13.62839-10.04287   0.927
 3.73 1.75 -2.431 -2.438 -2.431 -2.419 -2.401 11.03823 13.87857 -9.79262   1.073
 3.73 2.00 -2.356 -2.363 -2.356 -2.343 -2.324 11.16554 14.12872 -9.54242   1.242
 3.73 2.25 -2.266 -2.273 -2.266 -2.252 -2.233 11.29345 14.37887 -9.29236   1.439
 3.73 2.50 -2.166 -2.173 -2.166 -2.152 -2.132 11.42210 14.62900 -9.04230   1.669
 3.73 2.75 -2.057 -2.065 -2.057 -2.043 -2.023 11.55181 14.87902 -8.79221   1.938
 3.73 3.00 -1.943 -1.951 -1.943 -1.928 -1.907 11.68287 15.12905 -8.54212   2.254
 3.73 3.20 -1.847 -1.855 -1.847 -1.832 -1.811 11.78903 15.32911 -8.34211   2.547
 3.73 3.40 -1.748 -1.757 -1.748 -1.733 -1.712 11.89672 15.52917 -8.14211   2.883
 3.73 3.60 -1.646 -1.655 -1.646 -1.631 -1.609 12.00612 15.72924 -7.94208   3.269
 3.73 3.80 -1.541 -1.549 -1.541 -1.525 -1.504 12.11802 15.92930 -7.74202   3.719
 3.73 4.00 -1.432 -1.440 -1.432 -1.416 -1.395 12.23249 16.12937 -7.54197   4.243
 3.73 4.20 -1.317 -1.325 -1.317 -1.302 -1.281 12.35047 16.32934 -7.34197   4.861
 3.73 4.40 -1.199 -1.206 -1.199 -1.184 -1.163 12.47237 16.52932 -7.14196   5.593
 3.73 4.60 -1.074 -1.082 -1.074 -1.060 -1.040 12.59880 16.72935 -6.94193   6.470
 3.73 4.80 -0.944 -0.951 -0.944 -0.930 -0.911 12.73034 16.92948 -6.74183   7.527
 3.73 5.00 -0.808 -0.814 -0.808 -0.796 -0.777 12.86658 17.12969 -6.54166   8.805
 3.73 5.20 -0.665 -0.671 -0.665 -0.654 -0.637 13.00874 17.32994 -6.34141  10.371
 3.73 5.40 -0.519 -0.524 -0.519 -0.509 -0.493 13.15391 17.53030 -6.14102  12.257
 3.73 5.60 -0.370 -0.375 -0.370 -0.362 -0.347 13.30262 17.73085 -5.94044  14.546
 3.73 5.80 -0.222 -0.226 -0.222 -0.214 -0.200 13.45261 17.93182 -5.73946  17.288
 3.73 6.00 -0.074 -0.078 -0.074 -0.067 -0.055 13.60260 18.13322 -5.53805  20.547
 3.73 6.25  0.099  0.096  0.099  0.107  0.119 13.78787 18.38627 -5.28503  25.432
 3.73 6.50  0.267  0.263  0.267  0.274  0.286 13.97067 18.64118 -5.03017  31.388
 3.73 6.75  0.421  0.418  0.421  0.428  0.440 14.14815 18.89951 -4.77182  38.502
 3.73 7.00  0.561  0.558  0.561  0.568  0.580 14.32139 19.16167 -4.50962  47.000
 3.73 7.25  0.684  0.680  0.684  0.690  0.702 14.49050 19.42973 -4.24146  57.105
 3.73 7.50  0.787  0.784  0.787  0.794  0.806 14.65552 19.70174 -3.96940  69.058
 3.73 7.75  0.871  0.868  0.871  0.878  0.890 14.81656 19.97673 -3.69444  83.125
 3.73 8.00  0.938  0.935  0.938  0.945  0.957 14.97359 20.25503 -3.41623  99.591
 3.76-2.00 -1.009 -1.012 -1.009 -1.004 -0.997  9.44979  9.98932-13.68194   0.166
 3.76-1.50 -1.226 -1.228 -1.226 -1.221 -1.213  9.75914 10.53161-13.13972   0.238
 3.76-1.00 -1.446 -1.449 -1.446 -1.441 -1.432 10.04336 11.05956-12.61190   0.330
 3.76-0.50 -1.660 -1.663 -1.660 -1.654 -1.644 10.31281 11.57623-12.09507   0.450
 3.76 0.00 -1.854 -1.858 -1.854 -1.847 -1.837 10.57415 12.08600-11.58519   0.607
 3.76 0.50 -2.009 -2.013 -2.009 -2.001 -1.988 10.83084 12.59184-11.07951   0.816
 3.76 1.00 -2.091 -2.096 -2.091 -2.081 -2.066 11.08529 13.09517-10.57626   1.094
 3.76 1.25 -2.095 -2.101 -2.095 -2.084 -2.068 11.21179 13.34617-10.32523   1.266
 3.76 1.50 -2.073 -2.079 -2.073 -2.062 -2.045 11.33826 13.59693-10.07443   1.464
 3.76 1.75 -2.028 -2.034 -2.028 -2.015 -1.997 11.46472 13.84752 -9.82380   1.694
 3.76 2.00 -1.962 -1.969 -1.962 -1.950 -1.931 11.59118 14.09795 -9.57333   1.959
 3.76 2.25 -1.881 -1.889 -1.881 -1.868 -1.849 11.71769 14.34821 -9.32301   2.266
 3.76 2.50 -1.789 -1.797 -1.789 -1.776 -1.756 11.84429 14.59846 -9.07278   2.622
 3.76 2.75 -1.689 -1.697 -1.689 -1.675 -1.655 11.97126 14.84873 -8.82264   3.035
 3.76 3.00 -1.583 -1.591 -1.583 -1.569 -1.548 12.09864 15.09899 -8.57251   3.514
 3.76 3.20 -1.494 -1.502 -1.494 -1.480 -1.459 12.20098 15.29900 -8.37241   3.953
 3.76 3.40 -1.403 -1.411 -1.403 -1.388 -1.367 12.30383 15.49901 -8.17232   4.450
 3.76 3.60 -1.310 -1.318 -1.310 -1.295 -1.273 12.40726 15.69907 -7.97225   5.012
 3.76 3.80 -1.214 -1.222 -1.214 -1.199 -1.177 12.51156 15.89921 -7.77222   5.652
 3.76 4.00 -1.117 -1.125 -1.117 -1.101 -1.079 12.61679 16.09934 -7.57219   6.380
 3.76 4.20 -1.016 -1.024 -1.016 -1.001 -0.978 12.72330 16.29929 -7.37215   7.213
 3.76 4.40 -0.913 -0.921 -0.913 -0.898 -0.876 12.83140 16.49925 -7.17209   8.169
 3.76 4.60 -0.807 -0.814 -0.807 -0.792 -0.770 12.94128 16.69923 -6.97203   9.270
 3.76 4.80 -0.696 -0.704 -0.696 -0.682 -0.661 13.05364 16.89926 -6.77196  10.549
 3.76 5.00 -0.583 -0.590 -0.583 -0.570 -0.549 13.16850 17.09933 -6.57187  12.040
 3.76 5.20 -0.464 -0.470 -0.464 -0.452 -0.433 13.28660 17.29948 -6.37174  13.794
 3.76 5.40 -0.342 -0.347 -0.342 -0.331 -0.313 13.40810 17.49973 -6.17156  15.866
 3.76 5.60 -0.216 -0.221 -0.216 -0.206 -0.189 13.53349 17.70008 -5.97129  18.331
 3.76 5.80 -0.086 -0.090 -0.086 -0.077 -0.062 13.66276 17.90063 -5.77080  21.272
 3.76 6.00  0.046  0.042  0.046  0.054  0.068 13.79539 18.10140 -5.57009  24.781
 3.76 6.25  0.209  0.205  0.209  0.217  0.231 13.96650 18.35290 -5.31853  30.175
 3.76 6.50  0.373  0.369  0.373  0.381  0.394 14.13956 18.60530 -5.06596  36.828
 3.76 6.75  0.533  0.530  0.533  0.541  0.555 14.31413 18.85981 -4.81138  45.028
 3.76 7.00  0.687  0.684  0.687  0.695  0.708 14.48869 19.11694 -4.55424  55.055
 3.76 7.25  0.828  0.824  0.828  0.836  0.849 14.66046 19.37864 -4.29261  67.094
 3.76 7.50  0.954  0.950  0.954  0.962  0.975 14.82943 19.64474 -4.02660  81.501
 3.76 7.75  1.059  1.055  1.059  1.067  1.080 14.99355 19.91583 -3.75549  98.449
 3.76 8.00  1.145  1.141  1.145  1.153  1.166 15.15351 20.19173 -3.47952 118.352
 3.79-2.00 -0.684 -0.686 -0.684 -0.679 -0.670  9.64856  9.86237-13.80883   0.202
 3.79-1.50 -0.833 -0.836 -0.833 -0.828 -0.819 10.03623 10.41896-13.25236   0.316
 3.79-1.00 -1.019 -1.021 -1.019 -1.013 -1.004 10.37365 10.97169-12.69962   0.466
 3.79-0.50 -1.213 -1.216 -1.213 -1.207 -1.198 10.67523 11.51001-12.16128   0.659
 3.79 0.00 -1.396 -1.399 -1.396 -1.390 -1.380 10.95487 12.03463-11.63676   0.910
 3.79 0.50 -1.547 -1.550 -1.547 -1.540 -1.528 11.22167 12.54925-11.12200   1.237
 3.79 1.00 -1.637 -1.641 -1.637 -1.628 -1.614 11.48159 13.05805-10.61332   1.668
 3.79 1.25 -1.650 -1.655 -1.650 -1.640 -1.626 11.60984 13.31073-10.36059   1.933
 3.79 1.50 -1.640 -1.646 -1.640 -1.630 -1.614 11.73743 13.56277-10.10852   2.239
 3.79 1.75 -1.608 -1.614 -1.608 -1.597 -1.580 11.86453 13.81436 -9.85693   2.592
 3.79 2.00 -1.556 -1.562 -1.556 -1.544 -1.527 11.99131 14.06558 -9.60572   3.000
 3.79 2.25 -1.487 -1.493 -1.487 -1.475 -1.457 12.11785 14.31645 -9.35482   3.470
 3.79 2.50 -1.406 -1.413 -1.406 -1.394 -1.376 12.24428 14.56714 -9.10414   4.013
 3.79 2.75 -1.316 -1.322 -1.316 -1.303 -1.284 12.37060 14.81774 -8.85365   4.642
 3.79 3.00 -1.219 -1.225 -1.219 -1.206 -1.186 12.49693 15.06819 -8.60328   5.369
 3.79 3.20 -1.137 -1.144 -1.137 -1.124 -1.104 12.59811 15.26833 -8.40304   6.033
 3.79 3.40 -1.053 -1.060 -1.053 -1.039 -1.019 12.69942 15.46848 -8.20284   6.779
 3.79 3.60 -0.966 -0.974 -0.966 -0.952 -0.932 12.80089 15.66863 -8.00267   7.619
 3.79 3.80 -0.878 -0.885 -0.878 -0.864 -0.843 12.90267 15.86878 -7.80253   8.566
 3.79 4.00 -0.788 -0.795 -0.788 -0.773 -0.752 13.00475 16.06893 -7.60241   9.635
 3.79 4.20 -0.695 -0.703 -0.695 -0.680 -0.659 13.10737 16.26897 -7.40235  10.843
 3.79 4.40 -0.601 -0.609 -0.601 -0.586 -0.564 13.21061 16.46900 -7.20229  12.211
 3.79 4.60 -0.504 -0.512 -0.504 -0.490 -0.468 13.31450 16.66908 -7.00223  13.761
 3.79 4.80 -0.405 -0.412 -0.405 -0.391 -0.369 13.41934 16.86919 -6.80215  15.526
 3.79 5.00 -0.304 -0.311 -0.304 -0.290 -0.269 13.52518 17.06930 -6.60206  17.538
 3.79 5.20 -0.199 -0.205 -0.199 -0.186 -0.166 13.63232 17.26938 -6.40197  19.841
 3.79 5.40 -0.091 -0.097 -0.091 -0.079 -0.060 13.74106 17.46945 -6.20188  22.488
 3.79 5.60  0.018  0.013  0.018  0.029  0.047 13.85160 17.66961 -6.00173  25.541
 3.79 5.80  0.131  0.127  0.131  0.141  0.158 13.96445 17.86994 -5.80143  29.082
 3.79 6.00  0.247  0.243  0.247  0.256  0.271 14.07954 18.07041 -5.60102  33.200
 3.79 6.25  0.389  0.385  0.389  0.397  0.412 14.22720 18.32115 -5.35024  39.352
 3.79 6.50  0.534  0.530  0.534  0.542  0.557 14.37876 18.57229 -5.09898  46.855
 3.79 6.75  0.680  0.676  0.680  0.688  0.703 14.53475 18.82475 -4.84656  56.075
 3.79 7.00  0.826  0.822  0.826  0.834  0.849 14.69346 19.07882 -4.59261  67.317
 3.79 7.25  0.967  0.963  0.967  0.975  0.990 14.85504 19.33554 -4.33584  81.073
 3.79 7.50  1.101  1.097  1.101  1.110  1.124 15.01662 19.59561 -4.07567  97.641
 3.79 7.75  1.221  1.217  1.221  1.229  1.243 15.17658 19.86121 -3.81007 117.397
 3.79 8.00  1.324  1.320  1.324  1.332  1.346 15.33546 20.13162 -3.53970 140.991
 3.82-2.00 -0.548 -0.551 -0.548 -0.542 -0.532  9.69819  9.77547-13.89585   0.207
 3.82-1.50 -0.592 -0.595 -0.592 -0.586 -0.576 10.16227 10.30341-13.36795   0.353
 3.82-1.00 -0.682 -0.685 -0.682 -0.676 -0.667 10.58377 10.85236-12.81902   0.573
 3.82-0.50 -0.815 -0.818 -0.815 -0.809 -0.800 10.95173 11.40959-12.26178   0.876
 3.82 0.00 -0.962 -0.964 -0.962 -0.956 -0.946 11.27439 11.95756-11.71377   1.269
 3.82 0.50 -1.090 -1.093 -1.090 -1.083 -1.073 11.56644 12.49038-11.18092   1.777
 3.82 1.00 -1.173 -1.177 -1.173 -1.165 -1.154 11.84061 13.01072-10.66035   2.436
 3.82 1.25 -1.190 -1.194 -1.190 -1.182 -1.169 11.97348 13.26762-10.40354   2.839
 3.82 1.50 -1.188 -1.193 -1.188 -1.180 -1.166 12.10449 13.52297-10.14831   3.301
 3.82 1.75 -1.168 -1.173 -1.168 -1.158 -1.144 12.23399 13.77709 -9.89434   3.832
 3.82 2.00 -1.130 -1.135 -1.130 -1.120 -1.104 12.36248 14.03020 -9.64130   4.443
 3.82 2.25 -1.076 -1.081 -1.076 -1.065 -1.050 12.49021 14.28239 -9.38904   5.147
 3.82 2.50 -1.009 -1.014 -1.009 -0.998 -0.982 12.61742 14.53403 -9.13733   5.959
 3.82 2.75 -0.932 -0.937 -0.932 -0.921 -0.904 12.74424 14.78527 -8.88605   6.896
 3.82 3.00 -0.846 -0.852 -0.846 -0.835 -0.818 12.87081 15.03623 -8.63507   7.977
 3.82 3.20 -0.774 -0.780 -0.774 -0.762 -0.745 12.97190 15.23686 -8.43447   8.961
 3.82 3.40 -0.698 -0.704 -0.698 -0.686 -0.668 13.07299 15.43736 -8.23398  10.067
 3.82 3.60 -0.619 -0.626 -0.619 -0.607 -0.588 13.17406 15.63772 -8.03359  11.309
 3.82 3.80 -0.538 -0.545 -0.538 -0.525 -0.506 13.27514 15.83799 -7.83327  12.706
 3.82 4.00 -0.455 -0.462 -0.455 -0.442 -0.423 13.37621 16.03822 -7.63302  14.275
 3.82 4.20 -0.370 -0.377 -0.370 -0.357 -0.337 13.47754 16.23844 -7.43283  16.041
 3.82 4.40 -0.284 -0.291 -0.284 -0.270 -0.249 13.57907 16.43862 -7.23266  18.030
 3.82 4.60 -0.195 -0.202 -0.195 -0.181 -0.160 13.68085 16.63877 -7.03252  20.270
 3.82 4.80 -0.103 -0.110 -0.103 -0.090 -0.069 13.78299 16.83891 -6.83238  22.799
 3.82 5.00 -0.011 -0.017 -0.011  0.002  0.022 13.88553 17.03902 -6.63227  25.656
 3.82 5.20  0.085  0.079  0.085  0.097  0.118 13.98865 17.23909 -6.43221  28.889
 3.82 5.40  0.183  0.177  0.183  0.195  0.214 14.09243 17.43917 -6.23215  32.554
 3.82 5.60  0.284  0.279  0.284  0.295  0.313 14.19693 17.63930 -6.03207  36.716
 3.82 5.80  0.386  0.382  0.386  0.397  0.414 14.30241 17.83953 -5.83192  41.459
 3.82 6.00  0.491  0.487  0.491  0.500  0.516 14.40892 18.03981 -5.63171  46.870
 3.82 6.25  0.620  0.616  0.620  0.628  0.644 14.54402 18.29020 -5.38129  54.756
 3.82 6.50  0.750  0.746  0.750  0.759  0.774 14.68133 18.54070 -5.13059  64.130
 3.82 6.75  0.881  0.878  0.881  0.890  0.905 14.82125 18.79198 -4.87934  75.340
 3.82 7.00  1.014  1.010  1.014  1.022  1.037 14.96355 19.04415 -4.62727  88.753
 3.82 7.25  1.145  1.142  1.145  1.154  1.169 15.10866 19.29778 -4.37362 104.885
 3.82 7.50  1.274  1.271  1.274  1.283  1.297 15.25503 19.55352 -4.11782 124.135
 3.82 7.75  1.395  1.392  1.395  1.404  1.418 15.40207 19.81363 -3.85776 147.040
 3.82 8.00  1.506  1.502  1.506  1.514  1.528 15.54998 20.07737 -3.59414 174.356
 3.85-2.00 -0.520 -0.523 -0.520 -0.513 -0.502  9.68458  9.73135-13.94006   0.197
 3.85-1.50 -0.515 -0.519 -0.515 -0.508 -0.496 10.17696 10.23805-13.43333   0.347
 3.85-1.00 -0.518 -0.522 -0.518 -0.511 -0.499 10.65543 10.75595-12.91542   0.601
 3.85-0.50 -0.543 -0.546 -0.543 -0.536 -0.526 11.10209 11.29403-12.37737   1.006
 3.85 0.00 -0.600 -0.603 -0.600 -0.594 -0.584 11.49859 11.84936-11.82189   1.588
 3.85 0.50 -0.670 -0.672 -0.670 -0.664 -0.654 11.84367 12.40381-11.26753   2.362
 3.85 1.00 -0.720 -0.724 -0.720 -0.714 -0.704 12.15014 12.94473-10.72654   3.362
 3.85 1.25 -0.731 -0.735 -0.731 -0.724 -0.713 12.29369 13.20952-10.46179   3.966
 3.85 1.50 -0.729 -0.733 -0.729 -0.722 -0.710 12.43281 13.47129-10.20004   4.654
 3.85 1.75 -0.714 -0.718 -0.714 -0.706 -0.694 12.56836 13.73037 -9.94090   5.440
 3.85 2.00 -0.686 -0.690 -0.686 -0.677 -0.664 12.70140 13.98740 -9.68382   6.341
 3.85 2.25 -0.645 -0.649 -0.645 -0.636 -0.623 12.83246 14.24272 -9.42853   7.374
 3.85 2.50 -0.592 -0.597 -0.592 -0.583 -0.570 12.96213 14.49679 -9.17451   8.561
 3.85 2.75 -0.530 -0.535 -0.530 -0.521 -0.507 13.09071 14.74984 -8.92149   9.927
 3.85 3.00 -0.459 -0.464 -0.459 -0.450 -0.435 13.21854 15.00217 -8.66918  11.501
 3.85 3.20 -0.398 -0.403 -0.398 -0.388 -0.373 13.32034 15.20363 -8.46771  12.931
 3.85 3.40 -0.332 -0.338 -0.332 -0.322 -0.307 13.42191 15.40481 -8.26652  14.535
 3.85 3.60 -0.264 -0.269 -0.264 -0.253 -0.237 13.52326 15.60567 -8.06562  16.334
 3.85 3.80 -0.192 -0.198 -0.192 -0.181 -0.164 13.62450 15.80634 -7.86491  18.352
 3.85 4.00 -0.118 -0.124 -0.118 -0.107 -0.089 13.72567 16.00690 -7.66434  20.619
 3.85 4.20 -0.041 -0.047 -0.041 -0.030 -0.012 13.82676 16.20739 -7.46386  23.164
 3.85 4.40  0.036  0.030  0.036  0.048  0.067 13.92786 16.40781 -7.26346  26.024
 3.85 4.60  0.117  0.111  0.117  0.129  0.148 14.02901 16.60814 -7.06316  29.237
 3.85 4.80  0.200  0.194  0.200  0.213  0.232 14.13030 16.80840 -6.86293  32.854
 3.85 5.00  0.285  0.279  0.285  0.297  0.317 14.23173 17.00860 -6.66274  36.922
 3.85 5.20  0.373  0.367  0.373  0.385  0.404 14.33335 17.20873 -6.46261  41.505
 3.85 5.40  0.463  0.458  0.463  0.475  0.493 14.43524 17.40887 -6.26248  46.671
 3.85 5.60  0.556  0.551  0.556  0.566  0.584 14.53745 17.60904 -6.06232  52.499
 3.85 5.80  0.650  0.646  0.650  0.661  0.678 14.64013 17.80924 -5.86213  59.088
 3.85 6.00  0.747  0.743  0.747  0.756  0.772 14.74327 18.00945 -5.66194  66.539
 3.85 6.25  0.867  0.863  0.867  0.876  0.891 14.87305 18.25966 -5.41171  77.264
 3.85 6.50  0.988  0.985  0.988  0.997  1.012 15.00389 18.50987 -5.16147  89.827
 3.85 6.75  1.110  1.106  1.110  1.118  1.133 15.13619 18.76050 -4.91083 104.595
 3.85 7.00  1.233  1.229  1.233  1.241  1.256 15.26975 19.01157 -4.65976 121.969
 3.85 7.25  1.357  1.353  1.357  1.365  1.379 15.40469 19.26336 -4.40795 142.481
 3.85 7.50  1.480  1.476  1.480  1.488  1.502 15.54045 19.51627 -4.15503 166.597
 3.85 7.75  1.599  1.595  1.599  1.607  1.621 15.67674 19.77193 -3.89943 194.901
 3.85 8.00  1.711  1.708  1.711  1.719  1.733 15.81365 20.02979 -3.64168 228.167
 3.88-2.00 -0.520 -0.523 -0.520 -0.514 -0.504  9.65753  9.69862-13.97265   0.184
 3.88-1.50 -0.505 -0.509 -0.505 -0.498 -0.485 10.15594 10.20003-13.47134   0.327
 3.88-1.00 -0.481 -0.485 -0.481 -0.472 -0.459 10.65138 10.70415-12.96738   0.578
 3.88-0.50 -0.442 -0.446 -0.442 -0.434 -0.420 11.13767 11.21590-12.45544   1.012
 3.88 0.00 -0.394 -0.398 -0.394 -0.387 -0.375 11.60097 11.74429-11.92702   1.725
 3.88 0.50 -0.354 -0.358 -0.354 -0.348 -0.338 12.02119 12.29358-11.37768   2.799
 3.88 1.00 -0.326 -0.329 -0.326 -0.320 -0.310 12.38810 12.85083-10.82045   4.271
 3.88 1.25 -0.311 -0.314 -0.311 -0.305 -0.295 12.55353 13.12611-10.54522   5.166
 3.88 1.50 -0.293 -0.296 -0.293 -0.286 -0.276 12.70995 13.39846-10.27295   6.185
 3.88 1.75 -0.270 -0.273 -0.270 -0.263 -0.253 12.85865 13.66643-10.00499   7.340
 3.88 2.00 -0.240 -0.244 -0.240 -0.233 -0.223 13.00173 13.93100 -9.74041   8.655
 3.88 2.25 -0.204 -0.208 -0.204 -0.197 -0.186 13.14023 14.19231 -9.47902  10.152
 3.88 2.50 -0.162 -0.165 -0.162 -0.154 -0.143 13.27554 14.45117 -9.22011  11.864
 3.88 2.75 -0.112 -0.116 -0.112 -0.104 -0.093 13.40841 14.70798 -8.96337  13.824
 3.88 3.00 -0.056 -0.059 -0.056 -0.048 -0.035 13.53945 14.96322 -8.70819  16.074
 3.88 3.20 -0.006 -0.010 -0.006  0.002  0.014 13.64316 15.16643 -8.50495  18.113
 3.88 3.40  0.047  0.043  0.047  0.056  0.069 13.74624 15.36903 -8.30231  20.395
 3.88 3.60  0.104  0.100  0.104  0.113  0.127 13.84874 15.57109 -8.10024  22.949
 3.88 3.80  0.165  0.160  0.165  0.174  0.188 13.95089 15.77277 -7.89857  25.813
 3.88 4.00  0.228  0.224  0.228  0.238  0.253 14.05270 15.97410 -7.69724  29.023
 3.88 4.20  0.295  0.290  0.295  0.305  0.320 14.15418 16.17509 -7.49617  32.621
 3.88 4.40  0.364  0.359  0.364  0.374  0.390 14.25556 16.37591 -7.29532  36.660
 3.88 4.60  0.435  0.430  0.435  0.446  0.462 14.35683 16.57659 -7.09469  41.193
 3.88 4.80  0.509  0.504  0.509  0.520  0.537 14.45807 16.77717 -6.89419  46.285
 3.88 5.00  0.585  0.580  0.585  0.596  0.613 14.55931 16.97763 -6.69379  52.006
 3.88 5.20  0.664  0.659  0.664  0.675  0.692 14.66058 17.17791 -6.49344  58.437
 3.88 5.40  0.745  0.740  0.745  0.756  0.773 14.76190 17.37816 -6.29314  65.669
 3.88 5.60  0.829  0.825  0.829  0.839  0.856 14.86337 17.57839 -6.09290  73.805
 3.88 5.80  0.916  0.912  0.916  0.925  0.942 14.96511 17.77861 -5.89269  82.971
 3.88 6.00  1.005  1.001  1.005  1.014  1.029 15.06707 17.97882 -5.69250  93.298
 3.88 6.25  1.116  1.112  1.116  1.124  1.139 15.19482 18.22906 -5.44228 108.084
 3.88 6.50  1.230  1.227  1.230  1.238  1.252 15.32305 18.47929 -5.19206 125.289
 3.88 6.75  1.344  1.340  1.344  1.352  1.366 15.45205 18.72961 -4.94172 145.351
 3.88 7.00  1.460  1.457  1.460  1.468  1.482 15.58172 18.98005 -4.69122 168.754
 3.88 7.25  1.578  1.575  1.578  1.586  1.600 15.71223 19.23085 -4.44043 196.117
 3.88 7.50  1.697  1.693  1.697  1.704  1.718 15.84305 19.48216 -4.18916 228.005
 3.88 7.75  1.814  1.811  1.814  1.822  1.835 15.97401 19.73474 -3.93659 265.129
 3.88 8.00  1.929  1.926  1.929  1.936  1.949 16.10517 19.98834 -3.68298 308.376
 3.91-2.00 -0.525 -0.527 -0.525 -0.520 -0.512  9.62808  9.66811-14.00318   0.172
 3.91-1.50 -0.512 -0.515 -0.512 -0.505 -0.494 10.12775 10.16850-13.50293   0.306
 3.91-1.00 -0.485 -0.489 -0.485 -0.477 -0.463 10.62675 10.66932-13.00196   0.543
 3.91-0.50 -0.434 -0.438 -0.434 -0.424 -0.408 11.12353 11.17202-12.49922   0.962
 3.91 0.00 -0.344 -0.348 -0.344 -0.334 -0.319 11.61426 11.68034-11.99097   1.693
 3.91 0.50 -0.214 -0.218 -0.214 -0.206 -0.194 12.08778 12.20167-11.46954   2.920
 3.91 1.00 -0.067 -0.070 -0.067 -0.060 -0.050 12.52556 12.74422-10.92702   4.833
 3.91 1.25  0.000 -0.002  0.000  0.006  0.016 12.72482 13.02251-10.64870   6.079
 3.91 1.50  0.062  0.059  0.062  0.068  0.078 12.91137 13.30081-10.37039   7.535
 3.91 1.75  0.116  0.113  0.116  0.122  0.132 13.08458 13.57785-10.09343   9.199
 3.91 2.00  0.166  0.163  0.166  0.172  0.182 13.24748 13.85327 -9.81816  11.097
 3.91 2.25  0.212  0.209  0.212  0.219  0.228 13.40128 14.12396 -9.54744  13.246
 3.91 2.50  0.258  0.255  0.258  0.264  0.275 13.54839 14.39111 -9.28026  15.690
 3.91 2.75  0.304  0.301  0.304  0.311  0.321 13.69002 14.65457 -9.01683  18.469
 3.91 3.00  0.353  0.350  0.353  0.360  0.371 13.82769 14.91519 -8.75622  21.642
 3.91 3.20  0.394  0.391  0.394  0.401  0.412 13.93544 15.12183 -8.54951  24.502
 3.91 3.40  0.438  0.435  0.438  0.446  0.457 14.04181 15.32730 -8.34400  27.696
 3.91 3.60  0.485  0.481  0.485  0.492  0.504 14.14691 15.53166 -8.13966  31.257
 3.91 3.80  0.534  0.531  0.534  0.542  0.555 14.25120 15.73525 -7.93612  35.240
 3.91 4.00  0.587  0.583  0.587  0.595  0.608 14.35469 15.93812 -7.73330  39.696
 3.91 4.20  0.642  0.638  0.642  0.651  0.664 14.45746 16.14037 -7.53103  44.683
 3.91 4.40  0.700  0.696  0.700  0.709  0.723 14.55983 16.34220 -7.32918  50.274
 3.91 4.60  0.761  0.757  0.761  0.770  0.785 14.66184 16.54363 -7.12773  56.539
 3.91 4.80  0.825  0.820  0.825  0.834  0.849 14.76365 16.74480 -6.92654  63.569
 3.91 5.00  0.891  0.886  0.891  0.900  0.915 14.86528 16.94571 -6.72561  71.459
 3.91 5.20  0.960  0.955  0.960  0.969  0.985 14.96674 17.14637 -6.52492  80.313
 3.91 5.40  1.031  1.027  1.031  1.041  1.056 15.06820 17.34692 -6.32434  90.264
 3.91 5.60  1.106  1.102  1.106  1.115  1.130 15.16967 17.54740 -6.12385 101.450
 3.91 5.80  1.183  1.179  1.183  1.192  1.207 15.27118 17.74782 -5.92342 114.028
 3.91 6.00  1.263  1.260  1.263  1.272  1.286 15.37273 17.94817 -5.72308 128.173
 3.91 6.25  1.365  1.362  1.365  1.373  1.387 15.49991 18.19844 -5.47286 148.385
 3.91 6.50  1.471  1.468  1.471  1.478  1.492 15.62737 18.44871 -5.22265 171.836
 3.91 6.75  1.577  1.574  1.577  1.585  1.598 15.75524 18.69898 -4.97242 199.089
 3.91 7.00  1.686  1.683  1.686  1.694  1.707 15.88349 18.94924 -4.72216 230.764
 3.91 7.25  1.798  1.795  1.798  1.805  1.818 16.01221 19.19960 -4.47180 267.639
 3.91 7.50  1.912  1.909  1.912  1.919  1.932 16.14114 19.45010 -4.22127 310.463
 3.91 7.75  2.028  2.025  2.028  2.034  2.046 16.27016 19.70105 -3.97030 360.168
 3.91 8.00  2.143  2.140  2.143  2.150  2.161 16.39933 19.95236 -3.71897 417.879
 3.94-2.00 -0.529 -0.531 -0.529 -0.526 -0.520  9.59846  9.63779-14.03353   0.161
 3.94-1.50 -0.520 -0.522 -0.520 -0.515 -0.506 10.09830 10.13799-13.53328   0.285
 3.94-1.00 -0.499 -0.502 -0.499 -0.491 -0.479 10.59791 10.63829-13.03306   0.507
 3.94-0.50 -0.453 -0.457 -0.453 -0.443 -0.428 11.09726 11.13893-12.53239   0.901
 3.94 0.00 -0.362 -0.367 -0.362 -0.351 -0.334 11.59484 11.64098-12.03030   1.599
 3.94 0.50 -0.207 -0.212 -0.207 -0.197 -0.180 12.08778 12.14706-11.52418   2.821
 3.94 1.00  0.012  0.008  0.012  0.021  0.035 12.56785 12.66389-11.00740   4.902
 3.94 1.25  0.136  0.132  0.136  0.144  0.157 12.79733 12.92975-10.74160   6.384
 3.94 1.50  0.260  0.257  0.260  0.268  0.279 13.01745 13.20030-10.47108   8.226
 3.94 1.75  0.373  0.370  0.373  0.380  0.391 13.22425 13.47743-10.19391  10.437
 3.94 2.00  0.473  0.470  0.473  0.479  0.490 13.41847 13.75481 -9.91650  13.051
 3.94 2.25  0.555  0.552  0.555  0.562  0.572 13.59851 14.03233 -9.63896  16.057
 3.94 2.50  0.626  0.623  0.626  0.632  0.642 13.76730 14.30984 -9.36141  19.501
 3.94 2.75  0.686  0.683  0.686  0.692  0.702 13.92580 14.58263 -9.08864  23.404
 3.94 3.00  0.741  0.738  0.741  0.747  0.757 14.07664 14.85199 -8.81930  27.842
 3.94 3.20  0.782  0.779  0.782  0.788  0.798 14.19255 15.06447 -8.60680  31.819
 3.94 3.40  0.822  0.819  0.822  0.829  0.839 14.30556 15.27498 -8.39627  36.241
 3.94 3.60  0.863  0.860  0.863  0.870  0.881 14.41582 15.48352 -8.18771  41.146
 3.94 3.80  0.905  0.902  0.905  0.912  0.923 14.52426 15.69059 -7.98065  46.616
 3.94 4.00  0.949  0.946  0.949  0.956  0.968 14.63104 15.89631 -7.77495  52.712
 3.94 4.20  0.995  0.991  0.995  1.002  1.014 14.73645 16.10090 -7.57044  59.515
 3.94 4.40  1.043  1.039  1.043  1.050  1.063 14.84095 16.30465 -7.36674  67.126
 3.94 4.60  1.093  1.090  1.093  1.101  1.114 14.94462 16.50757 -7.16380  75.637
 3.94 4.80  1.146  1.143  1.146  1.154  1.167 15.04776 16.70993 -6.96137  85.174
 3.94 5.00  1.202  1.198  1.202  1.210  1.223 15.15045 16.91180 -6.75945  95.863
 3.94 5.20  1.261  1.257  1.261  1.269  1.282 15.25274 17.11327 -6.55800 107.845
 3.94 5.40  1.322  1.318  1.322  1.330  1.343 15.35486 17.31447 -6.35682 121.299
 3.94 5.60  1.386  1.383  1.386  1.394  1.408 15.45680 17.51544 -6.15589 136.401
 3.94 5.80  1.454  1.451  1.454  1.462  1.475 15.55869 17.71625 -5.95511 153.373
 3.94 6.00  1.525  1.522  1.525  1.532  1.544 15.66058 17.91688 -5.75449 172.457
 3.94 6.25  1.616  1.613  1.616  1.623  1.635 15.78796 18.16738 -5.50390 199.693
 3.94 6.50  1.712  1.709  1.712  1.718  1.730 15.91535 18.41780 -5.25344 231.245
 3.94 6.75  1.809  1.806  1.809  1.816  1.827 16.04298 18.66821 -5.00307 267.872
 3.94 7.00  1.910  1.908  1.910  1.917  1.928 16.17085 18.91855 -4.75276 310.387
 3.94 7.25  2.015  2.013  2.015  2.022  2.033 16.29929 19.16876 -4.50252 359.796
 3.94 7.50  2.124  2.121  2.124  2.130  2.141 16.42781 19.41896 -4.25228 417.141
 3.94 7.75  2.235  2.232  2.235  2.241  2.251 16.55635 19.66931 -4.00194 483.669
 3.94 8.00  2.348  2.346  2.348  2.354  2.364 16.68494 19.91976 -3.75154 560.872
 3.97-2.00 -0.527 -0.529 -0.527 -0.525 -0.521  9.57019  9.60617-14.06515   0.150
 3.97-1.50 -0.524 -0.526 -0.524 -0.520 -0.514 10.06893 10.10721-13.56400   0.267
 3.97-1.00 -0.510 -0.512 -0.510 -0.504 -0.495 10.56820 10.60799-13.06339   0.474
 3.97-0.50 -0.475 -0.479 -0.475 -0.467 -0.454 11.06781 11.10823-12.56304   0.842
 3.97 0.00 -0.399 -0.403 -0.399 -0.388 -0.371 11.56714 11.60895-12.06238   1.496
 3.97 0.50 -0.252 -0.258 -0.252 -0.241 -0.222 12.06521 12.11059-11.56067   2.655
 3.97 1.00 -0.020 -0.025 -0.020 -0.009  0.008 12.55955 12.61574-11.05557   4.690
 3.97 1.25  0.125  0.121  0.125  0.136  0.153 12.80318 12.87124-10.80009   6.209
 3.97 1.50  0.287  0.283  0.287  0.297  0.313 13.04297 13.12969-10.54167   8.183
 3.97 1.75  0.453  0.449  0.453  0.462  0.476 13.27593 13.39326-10.27806  10.700
 3.97 2.00  0.613  0.609  0.613  0.621  0.635 13.50065 13.66153-10.00975  13.859
 3.97 2.25  0.756  0.753  0.756  0.764  0.776 13.71265 13.93644 -9.73484  17.690
 3.97 2.50  0.879  0.876  0.879  0.886  0.898 13.91238 14.21325 -9.45805  22.264
 3.97 2.75  0.979  0.976  0.979  0.986  0.997 14.09778 14.49146 -9.17987  27.560
 3.97 3.00  1.062  1.059  1.062  1.069  1.079 14.27138 14.76967 -8.90170  33.655
 3.97 3.20  1.117  1.114  1.117  1.124  1.135 14.40186 14.98923 -8.68215  39.113
 3.97 3.40  1.167  1.164  1.167  1.173  1.184 14.52702 15.20673 -8.46464  45.177
 3.97 3.60  1.212  1.209  1.212  1.219  1.229 14.64702 15.42181 -8.24951  51.871
 3.97 3.80  1.255  1.252  1.255  1.261  1.272 14.76343 15.63444 -8.03682  59.308
 3.97 4.00  1.296  1.293  1.296  1.302  1.313 14.87656 15.84497 -7.82623  67.558
 3.97 4.20  1.337  1.334  1.337  1.343  1.354 14.98699 16.05344 -7.61775  76.723
 3.97 4.40  1.379  1.376  1.379  1.385  1.396 15.09560 16.26046 -7.41073  86.947
 3.97 4.60  1.422  1.419  1.422  1.428  1.439 15.20250 16.46612 -7.20509  98.336
 3.97 4.80  1.466  1.463  1.466  1.473  1.484 15.30832 16.67080 -7.00042 111.072
 3.97 5.00  1.513  1.510  1.513  1.520  1.531 15.41313 16.87454 -6.79670 125.314
 3.97 5.20  1.563  1.560  1.563  1.569  1.581 15.51712 17.07743 -6.59381 141.251
 3.97 5.40  1.615  1.612  1.615  1.621  1.633 15.62062 17.27978 -6.39146 159.126
 3.97 5.60  1.669  1.667  1.669  1.676  1.688 15.72365 17.48166 -6.18956 179.164
 3.97 5.80  1.727  1.724  1.727  1.734  1.745 15.82644 17.68322 -5.98799 201.668
 3.97 6.00  1.788  1.786  1.788  1.794  1.805 15.92906 17.88446 -5.78675 226.952
 3.97 6.25  1.868  1.866  1.868  1.874  1.884 16.05716 18.13561 -5.53567 263.000
 3.97 6.50  1.953  1.951  1.953  1.958  1.968 16.18526 18.38650 -5.28483 304.774
 3.97 6.75  2.040  2.038  2.040  2.046  2.056 16.31338 18.63721 -5.03412 353.233
 3.97 7.00  2.133  2.130  2.133  2.138  2.148 16.44154 18.88773 -4.78357 409.461
 3.97 7.25  2.229  2.227  2.229  2.235  2.244 16.57015 19.13800 -4.53320 474.792
 3.97 7.50  2.331  2.329  2.331  2.336  2.345 16.69897 19.38828 -4.28291 550.672
 3.97 7.75  2.436  2.434  2.436  2.441  2.450 16.82792 19.63856 -4.03268 638.801
 3.97 8.00  2.545  2.543  2.545  2.549  2.558 16.95703 19.88885 -3.78252 741.184
 4.00-2.00 -0.512 -0.513 -0.512 -0.510 -0.506  9.54974  9.56797-14.10336   0.142
 4.00-1.50 -0.517 -0.519 -0.517 -0.514 -0.510 10.04415 10.07335-13.59808   0.250
 4.00-1.00 -0.513 -0.515 -0.513 -0.509 -0.502 10.54058 10.57646-13.09480   0.443
 4.00-0.50 -0.491 -0.494 -0.491 -0.485 -0.475 11.03902 11.07809-12.59346   0.787
 4.00 0.00 -0.434 -0.438 -0.434 -0.425 -0.411 11.53832 11.57864-12.09270   1.398
 4.00 0.50 -0.312 -0.317 -0.312 -0.300 -0.282 12.03743 12.07918-11.59210   2.484
 4.00 1.00 -0.096 -0.101 -0.096 -0.083 -0.063 12.53580 12.58081-11.09044   4.409
 4.00 1.25  0.048  0.043  0.048  0.061  0.081 12.78384 12.83253-10.83875   5.867
 4.00 1.50  0.217  0.212  0.217  0.229  0.249 13.03060 13.08529-10.58603   7.795
 4.00 1.75  0.402  0.397  0.402  0.414  0.432 13.27513 13.34015-10.33119  10.329
 4.00 2.00  0.596  0.591  0.596  0.607  0.625 13.51641 13.59770-10.07366  13.634
 4.00 2.25  0.788  0.783  0.788  0.798  0.814 13.75125 13.85993 -9.81141  17.867
 4.00 2.50  0.968  0.964  0.968  0.977  0.992 13.97841 14.12678 -9.54455  23.208
 4.00 2.75  1.127  1.124  1.127  1.135  1.149 14.19371 14.40034 -9.27101  29.736
 4.00 3.00  1.263  1.260  1.263  1.271  1.283 14.39707 14.67651 -8.99482  37.581
 4.00 3.20  1.353  1.350  1.353  1.360  1.372 14.54908 14.89921 -8.77207  44.768
 4.00 3.40  1.429  1.426  1.429  1.436  1.448 14.69336 15.12190 -8.54932  52.858
 4.00 3.60  1.494  1.491  1.494  1.501  1.512 14.82967 15.34362 -8.32762  61.839
 4.00 3.80  1.549  1.546  1.549  1.556  1.567 14.95959 15.56294 -8.10841  71.814
 4.00 4.00  1.599  1.596  1.599  1.605  1.616 15.08386 15.78039 -7.89110  82.859
 4.00 4.20  1.643  1.640  1.643  1.649  1.660 15.20327 15.99481 -7.67663  95.066
 4.00 4.40  1.685  1.682  1.685  1.691  1.701 15.31919 16.20707 -7.46429 108.637
 4.00 4.60  1.725  1.723  1.725  1.731  1.742 15.43176 16.41714 -7.25413 123.674
 4.00 4.80  1.766  1.763  1.766  1.772  1.782 15.54212 16.62547 -7.04574 140.436
 4.00 5.00  1.807  1.804  1.807  1.813  1.823 15.65050 16.83225 -6.83893 159.107
 4.00 5.20  1.849  1.846  1.849  1.855  1.865 15.75735 17.03768 -6.63353 179.928
 4.00 5.40  1.893  1.891  1.893  1.899  1.909 15.86313 17.24214 -6.42910 203.225
 4.00 5.60  1.940  1.937  1.940  1.945  1.955 15.96784 17.44568 -6.22560 229.270
 4.00 5.80  1.989  1.987  1.989  1.994  2.004 16.07193 17.64859 -6.02273 258.471
 4.00 6.00  2.041  2.039  2.041  2.046  2.055 16.17551 17.85089 -5.82045 291.217
 4.00 6.25  2.110  2.108  2.110  2.115  2.124 16.30442 18.10303 -5.56828 337.812
 4.00 6.50  2.184  2.182  2.184  2.189  2.197 16.43313 18.35468 -5.31659 391.761
 4.00 6.75  2.262  2.260  2.262  2.266  2.275 16.56171 18.60601 -5.06521 454.242
 4.00 7.00  2.345  2.343  2.345  2.349  2.357 16.69028 18.85703 -4.81417 526.687
 4.00 7.25  2.433  2.431  2.433  2.438  2.445 16.81904 19.10777 -4.56359 610.840
 4.00 7.50  2.527  2.525  2.527  2.531  2.539 16.94802 19.35832 -4.31310 708.639
 4.00 7.75  2.626  2.624  2.626  2.630  2.637 17.07759 19.60872 -4.06262 822.606
 4.00 8.00  2.730  2.728  2.730  2.733  2.740 17.20764 19.85896 -3.81220 955.386
 4.05-2.00 -0.492 -0.493 -0.492 -0.489 -0.485  9.50853  9.50920-14.16203   0.128
 4.05-1.50 -0.491 -0.492 -0.491 -0.488 -0.483 10.00732 10.01030-13.66095   0.227
 4.05-1.00 -0.491 -0.492 -0.491 -0.487 -0.481 10.50447 10.51335-13.15802   0.401
 4.05-0.50 -0.488 -0.490 -0.488 -0.483 -0.475 10.99926 11.01828-12.65306   0.710
 4.05 0.00 -0.466 -0.469 -0.466 -0.460 -0.449 11.49374 11.52362-12.14770   1.254
 4.05 0.50 -0.397 -0.401 -0.397 -0.387 -0.372 11.99021 12.02694-11.64455   2.221
 4.05 1.00 -0.241 -0.246 -0.241 -0.230 -0.210 12.48855 12.52840-11.14291   3.942
 4.05 1.25 -0.122 -0.127 -0.122 -0.109 -0.088 12.73789 12.77889-10.89230   5.253
 4.05 1.50  0.026  0.020  0.026  0.040  0.062 12.98722 13.02938-10.64168   6.999
 4.05 1.75  0.203  0.197  0.203  0.217  0.240 13.23625 13.28032-10.39080   9.323
 4.05 2.00  0.402  0.396  0.402  0.416  0.439 13.48487 13.53173-10.13954  12.412
 4.05 2.25  0.615  0.609  0.615  0.629  0.651 13.73231 13.78395 -9.88732  16.503
 4.05 2.50  0.836  0.830  0.836  0.849  0.870 13.97814 14.03743 -9.63376  21.902
 4.05 2.75  1.055  1.050  1.055  1.067  1.087 14.22088 14.29375 -9.37746  28.963
 4.05 3.00  1.269  1.264  1.269  1.280  1.298 14.45939 14.55340 -9.11787  38.114
 4.05 3.20  1.429  1.425  1.429  1.439  1.455 14.64473 14.76506 -8.90631  47.181
 4.05 3.40  1.577  1.573  1.577  1.586  1.600 14.82438 14.97970 -8.69176  58.024
 4.05 3.60  1.709  1.706  1.709  1.717  1.730 14.99714 15.19847 -8.47298  70.793
 4.05 3.80  1.824  1.821  1.824  1.831  1.843 15.16135 15.41958 -8.25179  85.522
 4.05 4.00  1.923  1.920  1.923  1.930  1.941 15.31765 15.64128 -8.03003 102.378
 4.05 4.20  2.005  2.003  2.005  2.011  2.021 15.46446 15.86335 -7.80789 121.235
 4.05 4.40  2.075  2.073  2.075  2.081  2.091 15.60402 16.08542 -7.58576 142.373
 4.05 4.60  2.136  2.133  2.136  2.141  2.150 15.73625 16.30615 -7.36506 165.787
 4.05 4.80  2.188  2.186  2.188  2.193  2.201 15.86285 16.52396 -7.14737 191.801
 4.05 5.00  2.235  2.233  2.235  2.240  2.248 15.98448 16.73965 -6.93181 220.629
 4.05 5.20  2.279  2.277  2.279  2.284  2.292 16.10193 16.95254 -6.71886 252.561
 4.05 5.40  2.322  2.320  2.322  2.326  2.334 16.21641 17.16342 -6.50791 288.135
 4.05 5.60  2.364  2.362  2.364  2.368  2.375 16.32801 17.37230 -6.29899 327.652
 4.05 5.80  2.407  2.405  2.407  2.410  2.418 16.43777 17.57965 -6.09166 371.807
 4.05 6.00  2.450  2.449  2.450  2.454  2.461 16.54593 17.78562 -5.88572 421.129
 4.05 6.25  2.508  2.506  2.508  2.511  2.517 16.67945 18.04150 -5.62990 491.083
 4.05 6.50  2.568  2.567  2.568  2.572  2.578 16.81178 18.29601 -5.37541 571.869
 4.05 6.75  2.633  2.632  2.633  2.636  2.642 16.94312 18.54934 -5.12196 665.203
 4.05 7.00  2.702  2.701  2.702  2.705  2.711 17.07409 18.80188 -4.86935 773.477
 4.05 7.25  2.777  2.776  2.777  2.780  2.785 17.20477 19.05385 -4.61748 899.124
 4.05 7.50  2.858  2.857  2.858  2.861  2.866 17.33546 19.30535 -4.366031045.182
 4.05 7.75  2.945  2.944  2.945  2.948  2.953 17.46672 19.55650 -4.114821215.663
 4.05 8.00  3.039  3.038  3.039  3.041  3.046 17.59835 19.80726 -3.863911414.490
 4.10-2.00 -0.484 -0.486 -0.484 -0.480 -0.473  9.45909  9.45864-14.21261   0.114
 4.10-1.50 -0.481 -0.483 -0.481 -0.477 -0.469  9.95904  9.95876-13.71265   0.202
 4.10-1.00 -0.478 -0.480 -0.478 -0.473 -0.465 10.45879 10.45894-13.21233   0.360
 4.10-0.50 -0.471 -0.474 -0.471 -0.466 -0.457 10.95818 10.95957-12.71175   0.639
 4.10 0.00 -0.456 -0.459 -0.456 -0.450 -0.440 11.45652 11.46135-12.21000   1.134
 4.10 0.50 -0.418 -0.421 -0.418 -0.410 -0.397 11.95274 11.96497-11.70642   2.008
 4.10 1.00 -0.326 -0.331 -0.326 -0.316 -0.300 12.44700 12.47056-11.20080   3.548
 4.10 1.25 -0.248 -0.253 -0.248 -0.237 -0.218 12.69433 12.72305-10.94832   4.717
 4.10 1.50 -0.143 -0.148 -0.143 -0.131 -0.110 12.94191 12.97525-10.69616   6.271
 4.10 1.75 -0.007 -0.013 -0.007  0.006  0.028 13.19025 13.22684-10.44453   8.347
 4.10 2.00  0.158  0.152  0.158  0.172  0.195 13.43886 13.47813-10.19321  11.114
 4.10 2.25  0.351  0.345  0.351  0.365  0.389 13.68771 13.72911 -9.94222  14.801
 4.10 2.50  0.565  0.558  0.565  0.579  0.603 13.93657 13.98009 -9.69122  19.711
 4.10 2.75  0.793  0.787  0.793  0.807  0.830 14.18493 14.23159 -9.43974  26.236
 4.10 3.00  1.029  1.023  1.029  1.041  1.063 14.43265 14.48373 -9.18762  34.895
 4.10 3.20  1.216  1.211  1.216  1.228  1.248 14.62959 14.68643 -8.98488  43.775
 4.10 3.40  1.402  1.398  1.402  1.413  1.432 14.82498 14.89038 -8.78088  54.817
 4.10 3.60  1.584  1.580  1.584  1.594  1.611 15.01834 15.09604 -8.57517  68.485
 4.10 3.80  1.758  1.755  1.758  1.767  1.782 15.20796 15.30445 -8.36677  85.196
 4.10 4.00  1.923  1.920  1.923  1.930  1.943 15.39375 15.51548 -8.15577 105.521
 4.10 4.20  2.073  2.070  2.073  2.079  2.091 15.57294 15.73092 -7.94042 129.697
 4.10 4.40  2.208  2.205  2.208  2.213  2.223 15.74533 15.94888 -7.72252 158.165
 4.10 4.60  2.325  2.323  2.325  2.330  2.339 15.90979 16.17002 -7.50137 191.121
 4.10 4.80  2.425  2.424  2.425  2.430  2.438 16.06547 16.39246 -7.27889 228.624
 4.10 5.00  2.512  2.510  2.512  2.516  2.523 16.21325 16.61490 -7.05641 271.015
 4.10 5.20  2.584  2.582  2.584  2.587  2.594 16.35248 16.83618 -6.83514 318.153
 4.10 5.40  2.647  2.646  2.647  2.650  2.656 16.48547 17.05626 -6.61511 370.812
 4.10 5.60  2.703  2.702  2.703  2.706  2.712 16.61227 17.27428 -6.39717 429.107
 4.10 5.80  2.754  2.753  2.754  2.757  2.762 16.73462 17.48950 -6.18199 494.014
 4.10 6.00  2.803  2.802  2.803  2.806  2.810 16.85303 17.70252 -5.96900 566.166
 4.10 6.25  2.862  2.861  2.862  2.864  2.868 16.99655 17.96552 -5.70584 667.954
 4.10 6.50  2.920  2.920  2.920  2.923  2.927 17.13672 18.22583 -5.44539 784.974
 4.10 6.75  2.980  2.980  2.980  2.983  2.987 17.27428 18.48387 -5.18730 919.621
 4.10 7.00  3.044  3.043  3.044  3.046  3.049 17.41027 18.74013 -4.931071075.425
 4.10 7.25  3.111  3.110  3.111  3.113  3.116 17.54484 18.99486 -4.676511255.635
 4.10 7.50  3.183  3.182  3.183  3.185  3.188 17.67925 19.24846 -4.422971465.761
 4.10 7.75  3.261  3.260  3.261  3.263  3.266 17.81360 19.50128 -4.170071710.950
 4.10 8.00  3.345  3.345  3.345  3.347  3.350 17.94787 19.75320 -3.917931996.948
 4.15-2.00 -0.485 -0.487 -0.485 -0.482 -0.477  9.40926  9.40875-14.26265   0.101
 4.15-1.50 -0.478 -0.480 -0.478 -0.473 -0.466  9.90913  9.90865-13.76271   0.180
 4.15-1.00 -0.470 -0.472 -0.470 -0.464 -0.454 10.40909 10.40875-13.26257   0.321
 4.15-0.50 -0.462 -0.465 -0.462 -0.455 -0.443 10.90902 10.90875-12.76246   0.570
 4.15 0.00 -0.450 -0.454 -0.450 -0.442 -0.429 11.40892 11.40892-12.26233   1.014
 4.15 0.50 -0.424 -0.428 -0.424 -0.416 -0.401 11.90843 11.90934-11.76195   1.802
 4.15 1.00 -0.362 -0.366 -0.362 -0.352 -0.335 12.40722 12.41061-11.26074   3.199
 4.15 1.25 -0.307 -0.312 -0.307 -0.296 -0.278 12.65602 12.66177-11.00959   4.260
 4.15 1.50 -0.232 -0.237 -0.232 -0.220 -0.201 12.90434 12.91339-10.75796   5.670
 4.15 1.75 -0.134 -0.139 -0.134 -0.121 -0.100 13.15190 13.16582-10.50543   7.540
 4.15 2.00 -0.012 -0.017 -0.012  0.001  0.023 13.39915 13.41847-10.25274  10.023
 4.15 2.25  0.136  0.130  0.136  0.150  0.173 13.64615 13.67127 -9.99995  13.320
 4.15 2.50  0.309  0.303  0.309  0.323  0.347 13.89315 13.92407 -9.74715  17.701
 4.15 2.75  0.509  0.503  0.509  0.522  0.545 14.14089 14.17622 -9.49510  23.544
 4.15 3.00  0.727  0.721  0.727  0.740  0.762 14.38881 14.42813 -9.24321  31.322
 4.15 3.20  0.914  0.908  0.914  0.926  0.947 14.58727 14.62951 -9.04180  39.362
 4.15 3.40  1.106  1.101  1.106  1.117  1.137 14.78574 14.83088 -8.84039  49.465
 4.15 3.60  1.302  1.297  1.302  1.312  1.331 14.98395 15.03247 -8.63877  62.144
 4.15 3.80  1.499  1.495  1.499  1.508  1.525 15.18131 15.23484 -8.43641  77.995
 4.15 4.00  1.692  1.688  1.692  1.700  1.715 15.37785 15.43791 -8.23336  97.798
 4.15 4.20  1.882  1.879  1.882  1.889  1.902 15.57230 15.64271 -8.02855 122.336
 4.15 4.40  2.066  2.063  2.066  2.072  2.084 15.76414 15.84949 -7.82175 152.574
 4.15 4.60  2.241  2.239  2.241  2.247  2.256 15.95260 16.05893 -7.61231 189.549
 4.15 4.80  2.405  2.403  2.405  2.410  2.418 16.13554 16.27172 -7.39955 233.994
 4.15 5.00  2.555  2.554  2.555  2.559  2.566 16.31302 16.48742 -7.18389 287.051
 4.15 5.20  2.686  2.685  2.686  2.690  2.695 16.48211 16.70766 -6.96365 348.733
 4.15 5.40  2.802  2.801  2.802  2.805  2.810 16.64355 16.92865 -6.74267 419.957
 4.15 5.60  2.901  2.900  2.901  2.903  2.907 16.79653 17.15034 -6.52098 500.843
 4.15 5.80  2.986  2.985  2.986  2.988  2.991 16.94153 17.37220 -6.29912 591.869
 4.15 6.00  3.061  3.060  3.061  3.062  3.065 17.07954 17.59406 -6.07728 693.822
 4.15 6.25  3.140  3.140  3.140  3.142  3.145 17.24295 17.86715 -5.80420 837.418
 4.15 6.50  3.214  3.213  3.214  3.215  3.218 17.39898 18.13704 -5.534321002.174
 4.15 6.75  3.282  3.281  3.282  3.283  3.285 17.54886 18.40299 -5.268321190.850
 4.15 7.00  3.349  3.349  3.349  3.350  3.353 17.69461 18.66586 -5.005421408.371
 4.15 7.25  3.417  3.416  3.417  3.418  3.420 17.83694 18.92595 -4.745431659.175
 4.15 7.50  3.487  3.487  3.487  3.488  3.491 17.97759 19.18384 -4.487581950.867
 4.15 7.75  3.562  3.561  3.562  3.563  3.565 18.11736 19.44006 -4.231292291.515
 4.15 8.00  3.641  3.640  3.641  3.642  3.643 18.25600 19.69443 -3.976752688.095
 4.20-2.00 -0.490 -0.490 -0.490 -0.488 -0.485  9.35927  9.35870-14.31265   0.090
 4.20-1.50 -0.484 -0.485 -0.484 -0.482 -0.478  9.85914  9.85866-13.81276   0.161
 4.20-1.00 -0.476 -0.477 -0.476 -0.472 -0.466 10.35908 10.35870-13.31265   0.286
 4.20-0.50 -0.463 -0.465 -0.463 -0.458 -0.448 10.85908 10.85866-12.81276   0.508
 4.20 0.00 -0.446 -0.450 -0.446 -0.439 -0.425 11.35908 11.35870-12.31256   0.904
 4.20 0.50 -0.423 -0.427 -0.423 -0.413 -0.396 11.85896 11.85884-11.81248   1.607
 4.20 1.00 -0.381 -0.386 -0.381 -0.370 -0.349 12.35889 12.35908-11.31229   2.856
 4.20 1.25 -0.346 -0.351 -0.346 -0.333 -0.311 12.60868 12.60921-11.06214   3.808
 4.20 1.50 -0.294 -0.299 -0.294 -0.281 -0.258 12.85836 12.85938-10.81192   5.077
 4.20 1.75 -0.222 -0.228 -0.222 -0.208 -0.184 13.10795 13.10985-10.56147   6.767
 4.20 2.00 -0.128 -0.134 -0.128 -0.113 -0.088 13.35736 13.36059-10.31078   9.017
 4.20 2.25 -0.008 -0.014 -0.008  0.006  0.031 13.60626 13.61163-10.05974  12.009
 4.20 2.50  0.135  0.129  0.135  0.149  0.174 13.85467 13.86309 -9.80827  15.986
 4.20 2.75  0.303  0.297  0.303  0.317  0.341 14.10240 14.11542 -9.55597  21.261
 4.20 3.00  0.489  0.483  0.489  0.502  0.525 14.34967 14.36810 -9.30329  28.263
 4.20 3.20  0.653  0.648  0.653  0.666  0.687 14.54707 14.57049 -9.10087  35.476
 4.20 3.40  0.826  0.822  0.826  0.838  0.858 14.74447 14.77288 -8.89845  44.529
 4.20 3.60  1.009  1.005  1.009  1.020  1.038 14.94203 14.97512 -8.69619  55.903
 4.20 3.80  1.200  1.196  1.200  1.210  1.226 15.13974 15.17721 -8.49410  70.196
 4.20 4.00  1.396  1.392  1.396  1.404  1.419 15.33746 15.37931 -8.29200  88.143
 4.20 4.20  1.597  1.594  1.597  1.604  1.617 15.53501 15.58153 -8.08981 110.653
 4.20 4.40  1.798  1.796  1.798  1.805  1.816 15.73230 15.78396 -7.88746 138.862
 4.20 4.60  1.998  1.996  1.998  2.004  2.014 15.92889 15.98698 -7.68447 174.123
 4.20 4.80  2.195  2.193  2.195  2.199  2.208 16.12364 16.19149 -7.47989 217.884
 4.20 5.00  2.386  2.384  2.386  2.390  2.397 16.31660 16.39742 -7.27384 272.086
 4.20 5.20  2.570  2.568  2.570  2.573  2.579 16.50576 16.60629 -7.06500 338.292
 4.20 5.40  2.743  2.742  2.743  2.746  2.750 16.69052 16.81788 -6.85345 418.488
 4.20 5.60  2.902  2.901  2.902  2.904  2.907 16.86981 17.03311 -6.63821 514.445
 4.20 5.80  3.044  3.043  3.044  3.045  3.048 17.04168 17.25134 -6.41994 627.017
 4.20 6.00  3.171  3.170  3.171  3.172  3.174 17.20656 17.47144 -6.19983 758.092
 4.20 6.25  3.303  3.302  3.303  3.304  3.306 17.40028 17.74899 -5.92238 947.479
 4.20 6.50  3.416  3.416  3.416  3.417  3.419 17.58275 18.02654 -5.644931168.936
 4.20 6.75  3.512  3.511  3.512  3.512  3.514 17.75412 18.30124 -5.370221423.896
 4.20 7.00  3.599  3.598  3.599  3.599  3.601 17.91740 18.57334 -5.098051718.381
 4.20 7.25  3.679  3.678  3.679  3.679  3.681 18.07368 18.84136 -4.829982057.036
 4.20 7.50  3.757  3.757  3.757  3.758  3.759 18.22557 19.10619 -4.565112450.058
 4.20 7.75  3.835  3.835  3.835  3.835  3.836 18.37473 19.36820 -4.303112909.084
 4.20 8.00  3.915  3.915  3.915  3.916  3.917 18.52061 19.62726 -4.044073441.152
 4.25-2.00 -0.487 -0.487 -0.487 -0.485 -0.483  9.30920  9.30856-14.36271   0.081
 4.25-1.50 -0.485 -0.485 -0.485 -0.483 -0.480  9.80916  9.80862-13.86265   0.143
 4.25-1.00 -0.480 -0.481 -0.480 -0.478 -0.474 10.30920 10.30878-13.36261   0.255
 4.25-0.50 -0.471 -0.472 -0.471 -0.468 -0.462 10.80909 10.80868-12.86265   0.453
 4.25 0.00 -0.456 -0.458 -0.456 -0.451 -0.443 11.30921 11.30878-12.36261   0.806
 4.25 0.50 -0.433 -0.435 -0.433 -0.426 -0.414 11.80902 11.80875-11.86265   1.432
 4.25 1.00 -0.395 -0.399 -0.395 -0.385 -0.368 12.30899 12.30878-11.36251   2.547
 4.25 1.25 -0.367 -0.372 -0.367 -0.355 -0.335 12.55892 12.55885-11.11242   3.396
 4.25 1.50 -0.328 -0.333 -0.328 -0.314 -0.290 12.80882 12.80895-10.86233   4.527
 4.25 1.75 -0.276 -0.282 -0.276 -0.261 -0.235 13.05871 13.05907-10.61223   6.036
 4.25 2.00 -0.206 -0.212 -0.206 -0.190 -0.161 13.30857 13.30920-10.36211   8.049
 4.25 2.25 -0.116 -0.123 -0.116 -0.100 -0.070 13.55839 13.55938-10.11194  10.731
 4.25 2.50 -0.005 -0.011 -0.005  0.011  0.041 13.80814 13.80963 -9.86170  14.305
 4.25 2.75  0.132  0.126  0.132  0.149  0.178 14.05764 14.06013 -9.61119  19.066
 4.25 3.00  0.295  0.289  0.295  0.310  0.337 14.30686 14.31091 -9.36041  25.404
 4.25 3.20  0.444  0.439  0.444  0.458  0.483 14.50595 14.51178 -9.15952  31.948
 4.25 3.40  0.605  0.600  0.605  0.618  0.640 14.70473 14.71295 -8.95833  40.162
 4.25 3.60  0.777  0.773  0.777  0.789  0.808 14.90311 14.91461 -8.75667  50.462
 4.25 3.80  0.958  0.954  0.958  0.967  0.985 15.10105 15.11672 -8.55458  63.374
 4.25 4.00  1.142  1.138  1.142  1.150  1.165 15.29864 15.31911 -8.35223  79.558
 4.25 4.20  1.334  1.331  1.334  1.341  1.355 15.49577 15.52166 -8.14967  99.837
 4.25 4.40  1.528  1.526  1.528  1.535  1.546 15.69279 15.72435 -7.94697 125.264
 4.25 4.60  1.728  1.726  1.728  1.733  1.743 15.88978 15.92712 -7.74421 157.153
 4.25 4.80  1.931  1.929  1.931  1.936  1.944 16.08671 16.12999 -7.54133 197.139
 4.25 5.00  2.136  2.134  2.136  2.139  2.146 16.28353 16.33304 -7.33828 247.248
 4.25 5.20  2.341  2.340  2.341  2.345  2.351 16.47926 16.53681 -7.13452 309.744
 4.25 5.40  2.542  2.541  2.542  2.545  2.550 16.67369 16.74152 -6.92982 387.474
 4.25 5.60  2.739  2.738  2.739  2.741  2.744 16.86624 16.94777 -6.72356 483.672
 4.25 5.80  2.927  2.927  2.927  2.929  2.932 17.05519 17.15664 -6.51466 601.243
 4.25 6.00  3.106  3.106  3.106  3.107  3.110 17.24055 17.36791 -6.30338 744.297
 4.25 6.25  3.307  3.306  3.307  3.307  3.309 17.46341 17.63734 -6.03406 961.963
 4.25 6.50  3.485  3.485  3.485  3.486  3.487 17.67642 17.91025 -5.761201229.240
 4.25 6.75  3.633  3.633  3.633  3.634  3.635 17.87664 18.18700 -5.484371547.979
 4.25 7.00  3.764  3.764  3.764  3.764  3.765 18.06595 18.46374 -5.207541925.030
 4.25 7.25  3.874  3.873  3.874  3.874  3.875 18.24418 18.73879 -4.932412363.247
 4.25 7.50  3.975  3.974  3.975  3.975  3.975 18.41431 19.01199 -4.659162874.395
 4.25 7.75  4.067  4.067  4.067  4.067  4.068 18.57849 19.28140 -4.389803472.487
 4.25 8.00  4.157  4.157  4.157  4.157  4.158 18.73600 19.54765 -4.123674163.215
 4.30-2.00 -0.480 -0.480 -0.480 -0.478 -0.474  9.26055  9.25744-14.41397   0.072
 4.30-1.50 -0.479 -0.480 -0.479 -0.477 -0.473  9.75952  9.75823-13.91293   0.128
 4.30-1.00 -0.476 -0.477 -0.476 -0.474 -0.469 10.25935 10.25864-13.41274   0.227
 4.30-0.50 -0.471 -0.472 -0.471 -0.468 -0.463 10.75914 10.75861-12.91257   0.404
 4.30 0.00 -0.460 -0.461 -0.460 -0.457 -0.450 11.25912 11.25864-12.41263   0.718
 4.30 0.50 -0.441 -0.443 -0.441 -0.437 -0.429 11.75906 11.75869-11.91257   1.277
 4.30 1.00 -0.411 -0.413 -0.411 -0.405 -0.394 12.25912 12.25888-11.41251   2.270
 4.30 1.25 -0.389 -0.392 -0.389 -0.382 -0.369 12.50901 12.50886-11.16254   3.027
 4.30 1.50 -0.360 -0.363 -0.360 -0.351 -0.335 12.75891 12.75884-10.91257   4.036
 4.30 1.75 -0.320 -0.324 -0.320 -0.309 -0.290 13.00889 13.00884-10.66243   5.381
 4.30 2.00 -0.265 -0.270 -0.265 -0.252 -0.229 13.25888 13.25888-10.41229   7.175
 4.30 2.25 -0.194 -0.200 -0.194 -0.179 -0.152 13.50874 13.50898-10.16225   9.567
 4.30 2.50 -0.103 -0.109 -0.103 -0.086 -0.056 13.75861 13.75914 -9.91222  12.756
 4.30 2.75  0.008  0.001  0.008  0.025  0.056 14.00850 14.00935 -9.66207  17.008
 4.30 3.00  0.142  0.135  0.142  0.160  0.191 14.25840 14.25959 -9.41184  22.677
 4.30 3.20  0.268  0.262  0.268  0.284  0.314 14.45817 14.45979 -9.21162  28.541
 4.30 3.40  0.409  0.403  0.409  0.424  0.452 14.65783 14.66001 -9.01133  35.918
 4.30 3.60  0.567  0.561  0.567  0.580  0.605 14.85740 14.86033 -8.81093  45.197
 4.30 3.80  0.737  0.733  0.737  0.749  0.771 15.05679 15.06092 -8.61031  56.861
 4.30 4.00  0.917  0.913  0.917  0.927  0.945 15.25600 15.26174 -8.40949  71.520
 4.30 4.20  1.108  1.105  1.108  1.116  1.132 15.45478 15.46294 -8.20833  89.913
 4.30 4.40  1.302  1.299  1.302  1.309  1.322 15.65316 15.66452 -8.00679 112.984
 4.30 4.60  1.500  1.498  1.500  1.506  1.516 15.85108 15.86653 -7.80477 141.896
 4.30 4.80  1.700  1.699  1.700  1.705  1.714 16.04852 16.06900 -7.60225 178.105
 4.30 5.00  1.901  1.900  1.901  1.905  1.912 16.24551 16.27184 -7.39935 223.440
 4.30 5.20  2.107  2.106  2.107  2.110  2.116 16.44219 16.47494 -7.19622 280.218
 4.30 5.40  2.313  2.312  2.313  2.316  2.320 16.63835 16.67847 -6.99268 351.219
 4.30 5.60  2.521  2.520  2.521  2.523  2.527 16.83406 16.88239 -6.78879 439.978
 4.30 5.80  2.729  2.729  2.729  2.731  2.734 17.02891 17.08701 -6.58425 550.621
 4.30 6.00  2.932  2.932  2.932  2.933  2.935 17.22272 17.29248 -6.37893 688.253
 4.30 6.25  3.179  3.179  3.179  3.180  3.181 17.46119 17.55199 -6.11944 905.730
 4.30 6.50  3.412  3.412  3.412  3.413  3.414 17.69478 17.81471 -5.856671185.246
 4.30 6.75  3.622  3.622  3.622  3.623  3.623 17.92004 18.08286 -5.588511536.060
 4.30 7.00  3.812  3.812  3.812  3.812  3.813 18.13641 18.35449 -5.316861970.388
 4.30 7.25  3.972  3.972  3.972  3.972  3.973 18.34085 18.63014 -5.041172493.400
 4.30 7.50  4.115  4.115  4.115  4.115  4.116 18.53517 18.90580 -4.765483118.752
 4.30 7.75  4.237  4.237  4.237  4.237  4.238 18.72017 19.18026 -4.491023859.154
 4.30 8.00  4.351  4.351  4.351  4.351  4.351 18.89559 19.45393 -4.217384722.811
 4.35-2.00 -0.455 -0.455 -0.455 -0.453 -0.450  9.22272  9.19479-14.47664   0.067
 4.35-1.50 -0.460 -0.461 -0.460 -0.458 -0.454  9.71792  9.69967-13.97184   0.117
 4.35-1.00 -0.464 -0.465 -0.464 -0.461 -0.456 10.21325 10.20439-13.46686   0.205
 4.35-0.50 -0.463 -0.464 -0.463 -0.460 -0.454 10.71071 10.70706-12.96417   0.362
 4.35 0.00 -0.456 -0.458 -0.456 -0.453 -0.445 11.20978 11.20817-12.46306   0.641
 4.35 0.50 -0.442 -0.443 -0.442 -0.437 -0.429 11.70919 11.70859-11.96257   1.139
 4.35 1.00 -0.415 -0.417 -0.415 -0.410 -0.401 12.20925 12.20871-11.46256   2.024
 4.35 1.25 -0.396 -0.398 -0.396 -0.391 -0.381 12.45913 12.45874-11.21257   2.698
 4.35 1.50 -0.373 -0.376 -0.373 -0.367 -0.356 12.70902 12.70876-10.96257   3.597
 4.35 1.75 -0.343 -0.346 -0.343 -0.336 -0.323 12.95900 12.95887-10.71252   4.797
 4.35 2.00 -0.304 -0.308 -0.304 -0.296 -0.281 13.20898 13.20898-10.46243   6.396
 4.35 2.25 -0.251 -0.255 -0.251 -0.242 -0.224 13.45887 13.45900-10.21230   8.528
 4.35 2.50 -0.182 -0.186 -0.182 -0.171 -0.150 13.70876 13.70902 -9.96218  11.371
 4.35 2.75 -0.091 -0.096 -0.091 -0.079 -0.055 13.95874 13.95912 -9.71212  15.162
 4.35 3.00  0.020  0.015  0.020  0.034  0.060 14.20871 14.20925 -9.46206  20.218
 4.35 3.20  0.128  0.123  0.128  0.143  0.170 14.40853 14.40935 -9.26196  25.449
 4.35 3.40  0.253  0.247  0.253  0.267  0.294 14.60834 14.60946 -9.06185  32.034
 4.35 3.60  0.393  0.388  0.393  0.408  0.434 14.80818 14.80960 -8.86171  40.321
 4.35 3.80  0.549  0.544  0.549  0.562  0.587 15.00804 15.00980 -8.66153  50.750
 4.35 4.00  0.717  0.713  0.717  0.729  0.751 15.20790 15.21005 -8.46130  63.875
 4.35 4.20  0.899  0.895  0.899  0.909  0.928 15.40752 15.41039 -8.26096  80.381
 4.35 4.40  1.088  1.084  1.088  1.096  1.112 15.60697 15.61085 -8.06048 101.136
 4.35 4.60  1.284  1.282  1.284  1.291  1.304 15.80627 15.81151 -7.85984 127.226
 4.35 4.80  1.487  1.485  1.487  1.492  1.503 16.00534 16.01249 -7.65890 159.993
 4.35 5.00  1.691  1.690  1.691  1.695  1.704 16.20412 16.21378 -7.45767 201.129
 4.35 5.20  1.900  1.899  1.900  1.904  1.911 16.40227 16.41550 -7.25592 252.672
 4.35 5.40  2.109  2.108  2.109  2.112  2.117 16.59986 16.61771 -7.05366 317.224
 4.35 5.60  2.318  2.318  2.318  2.320  2.324 16.79691 16.82051 -6.85085 398.011
 4.35 5.80  2.529  2.528  2.529  2.530  2.534 16.99328 17.02402 -6.64741 498.973
 4.35 6.00  2.739  2.738  2.739  2.740  2.742 17.18893 17.22814 -6.44334 625.018
 4.35 6.25  3.004  3.004  3.004  3.005  3.007 17.43241 17.48398 -6.18740 827.213
 4.35 6.50  3.262  3.262  3.262  3.263  3.264 17.67394 17.74123 -5.929961092.378
 4.35 6.75  3.511  3.511  3.511  3.512  3.513 17.91199 18.00116 -5.670031436.920
 4.35 7.00  3.748  3.748  3.748  3.748  3.749 18.14551 18.26411 -5.407161880.367
 4.35 7.25  3.961  3.961  3.961  3.961  3.962 18.37138 18.53179 -5.139522438.693
 4.35 7.50  4.156  4.156  4.156  4.156  4.157 18.58917 18.80264 -4.868703133.384
 4.35 7.75  4.323  4.323  4.323  4.323  4.323 18.79662 19.07589 -4.595443978.580
 4.35 8.00  4.475  4.475  4.475  4.475  4.475 18.99449 19.35180 -4.319484996.458
 4.40-2.00 -0.447 -0.447 -0.447 -0.445 -0.443  9.17725  9.13988-14.53136   0.061
 4.40-1.50 -0.445 -0.445 -0.445 -0.443 -0.440  9.67660  9.64038-14.03091   0.108
 4.40-1.00 -0.443 -0.444 -0.443 -0.441 -0.437 10.17522 10.14176-13.52944   0.190
 4.40-0.50 -0.442 -0.443 -0.442 -0.440 -0.434 10.67228 10.64503-13.02627   0.335
 4.40 0.00 -0.442 -0.443 -0.442 -0.438 -0.431 11.16732 11.15014-12.52114   0.587
 4.40 0.50 -0.435 -0.436 -0.435 -0.430 -0.421 11.66295 11.65475-12.01651   1.028
 4.40 1.00 -0.414 -0.416 -0.414 -0.408 -0.398 12.16047 12.15746-11.51400   1.812
 4.40 1.25 -0.397 -0.399 -0.397 -0.391 -0.380 12.40986 12.40797-11.26340   2.412
 4.40 1.50 -0.375 -0.377 -0.375 -0.369 -0.357 12.65944 12.65830-11.01300   3.212
 4.40 1.75 -0.347 -0.350 -0.347 -0.341 -0.328 12.90915 12.90851-10.76275   4.279
 4.40 2.00 -0.314 -0.317 -0.314 -0.307 -0.294 13.15897 13.15866-10.51258   5.703
 4.40 2.25 -0.272 -0.275 -0.272 -0.264 -0.250 13.40892 13.40878-10.26250   7.603
 4.40 2.50 -0.219 -0.222 -0.219 -0.211 -0.195 13.65887 13.65887-10.01242  10.136
 4.40 2.75 -0.150 -0.153 -0.150 -0.140 -0.123 13.90877 13.90892 -9.76229  13.515
 4.40 3.00 -0.062 -0.066 -0.062 -0.052 -0.034 14.15866 14.15897 -9.51216  18.021
 4.40 3.20  0.025  0.021  0.025  0.036  0.056 14.35859 14.35907 -9.31210  22.685
 4.40 3.40  0.129  0.125  0.129  0.140  0.161 14.55852 14.55919 -9.11205  28.556
 4.40 3.60  0.252  0.247  0.252  0.262  0.283 14.75846 14.75931 -8.91198  35.945
 4.40 3.80  0.392  0.388  0.392  0.403  0.423 14.95841 14.95943 -8.71187  45.247
 4.40 4.00  0.547  0.543  0.547  0.557  0.578 15.15836 15.15957 -8.51173  56.954
 4.40 4.20  0.719  0.716  0.719  0.729  0.747 15.35815 15.35975 -8.31157  71.687
 4.40 4.40  0.901  0.898  0.901  0.910  0.927 15.55788 15.55998 -8.11138  90.226
 4.40 4.60  1.092  1.090  1.092  1.100  1.115 15.75758 15.76025 -7.91113 113.553
 4.40 4.80  1.291  1.289  1.291  1.297  1.310 15.95725 15.96061 -7.71078 142.900
 4.40 5.00  1.494  1.492  1.494  1.499  1.509 16.15685 16.16107 -7.51032 179.813
 4.40 5.20  1.703  1.701  1.703  1.707  1.715 16.35618 16.36168 -7.30970 226.203
 4.40 5.40  1.914  1.912  1.914  1.917  1.923 16.55523 16.56253 -7.10882 284.475
 4.40 5.60  2.127  2.126  2.127  2.129  2.134 16.75401 16.76370 -6.90761 357.630
 4.40 5.80  2.342  2.342  2.342  2.344  2.348 16.95233 16.96540 -6.70587 449.334
 4.40 6.00  2.557  2.556  2.557  2.558  2.561 17.15014 17.16761 -6.50362 564.207
 4.40 6.25  2.828  2.828  2.828  2.829  2.831 17.39609 17.42140 -6.24983 748.919
 4.40 6.50  3.098  3.098  3.098  3.098  3.100 17.64058 17.67642 -5.99482 992.479
 4.40 6.75  3.367  3.367  3.367  3.367  3.368 17.88353 17.93288 -5.738411312.784
 4.40 7.00  3.627  3.627  3.627  3.627  3.628 18.12418 18.19117 -5.480171731.813
 4.40 7.25  3.874  3.874  3.874  3.875  3.875 18.36128 18.45187 -5.219442275.412
 4.40 7.50  4.110  4.110  4.110  4.110  4.110 18.59384 18.71542 -4.955852974.082
 4.40 7.75  4.321  4.321  4.321  4.321  4.321 18.81889 18.98285 -4.688473853.624
 4.40 8.00  4.517  4.517  4.517  4.517  4.517 19.03743 19.25382 -4.417604955.788
 4.45-2.00 -0.443 -0.444 -0.443 -0.442 -0.440  9.12743  9.08955-14.58170   0.054
 4.45-1.50 -0.442 -0.442 -0.442 -0.440 -0.437  9.62726  9.58973-14.08160   0.096
 4.45-1.00 -0.439 -0.440 -0.439 -0.438 -0.434 10.12711 10.08990-13.58153   0.171
 4.45-0.50 -0.436 -0.437 -0.436 -0.434 -0.429 10.62696 10.59006-13.08124   0.303
 4.45 0.00 -0.430 -0.431 -0.430 -0.428 -0.422 11.12613 11.09096-12.58054   0.538
 4.45 0.50 -0.422 -0.423 -0.422 -0.418 -0.411 11.62439 11.59284-12.07852   0.951
 4.45 1.00 -0.405 -0.407 -0.405 -0.401 -0.391 12.12057 12.09691-11.57430   1.671
 4.45 1.25 -0.392 -0.394 -0.392 -0.387 -0.376 12.36800 12.34954-11.32170   2.209
 4.45 1.50 -0.373 -0.375 -0.373 -0.367 -0.355 12.61543 12.60217-11.06910   2.921
 4.45 1.75 -0.348 -0.350 -0.348 -0.341 -0.328 12.86331 12.85438-10.81691   3.868
 4.45 2.00 -0.315 -0.318 -0.315 -0.307 -0.293 13.11160 13.10619-10.56511   5.129
 4.45 2.25 -0.275 -0.278 -0.275 -0.267 -0.251 13.36051 13.35725-10.31405   6.813
 4.45 2.50 -0.227 -0.230 -0.227 -0.218 -0.201 13.60981 13.60799-10.06334   9.062
 4.45 2.75 -0.168 -0.171 -0.168 -0.158 -0.141 13.85952 13.85855 -9.81288  12.066
 4.45 3.00 -0.095 -0.099 -0.095 -0.086 -0.068 14.10924 14.10890 -9.56257  16.074
 4.45 3.20 -0.024 -0.027 -0.024 -0.014  0.004 14.30900 14.30897 -9.36242  20.227
 4.45 3.40  0.060  0.057  0.060  0.070  0.088 14.50875 14.50903 -9.16229  25.456
 4.45 3.60  0.162  0.158  0.162  0.171  0.190 14.70862 14.70916 -8.96217  32.042
 4.45 3.80  0.282  0.278  0.282  0.291  0.309 14.90859 14.90937 -8.76205  40.334
 4.45 4.00  0.418  0.415  0.418  0.426  0.443 15.10857 15.10958 -8.56193  50.772
 4.45 4.20  0.575  0.572  0.575  0.583  0.598 15.30834 15.30963 -8.36180  63.908
 4.45 4.40  0.744  0.742  0.744  0.752  0.766 15.50811 15.50968 -8.16166  80.441
 4.45 4.60  0.927  0.925  0.927  0.934  0.947 15.70790 15.70978 -7.96148 101.249
 4.45 4.80  1.121  1.119  1.121  1.127  1.139 15.90773 15.90998 -7.76125 127.438
 4.45 5.00  1.320  1.318  1.320  1.325  1.335 16.10755 16.11025 -7.56098 160.396
 4.45 5.20  1.527  1.525  1.527  1.531  1.540 16.30724 16.31057 -7.36069 201.855
 4.45 5.40  1.736  1.735  1.736  1.740  1.747 16.50684 16.51096 -7.16034 254.001
 4.45 5.60  1.949  1.948  1.949  1.952  1.958 16.70634 16.71144 -6.95985 319.580
 4.45 5.80  2.165  2.164  2.165  2.167  2.172 16.90569 16.91209 -6.75912 402.003
 4.45 6.00  2.381  2.380  2.381  2.382  2.386 17.10483 17.11294 -6.55815 505.558
 4.45 6.25  2.656  2.656  2.656  2.657  2.660 17.35301 17.36472 -6.30646 672.792
 4.45 6.50  2.931  2.931  2.931  2.932  2.934 17.60032 17.61732 -6.05404 894.487
 4.45 6.75  3.210  3.210  3.210  3.211  3.212 17.84642 17.87104 -5.800311187.492
 4.45 7.00  3.486  3.486  3.486  3.487  3.487 18.09096 18.12613 -5.545161573.610
 4.45 7.25  3.757  3.757  3.757  3.757  3.758 18.33330 18.38304 -5.288232080.031
 4.45 7.50  4.015  4.015  4.015  4.016  4.016 18.57287 18.64207 -5.029192740.731
 4.45 7.75  4.257  4.257  4.257  4.257  4.258 18.80821 18.90397 -4.767303593.727
 4.45 8.00  4.487  4.487  4.487  4.487  4.487 19.03981 19.16850 -4.502794691.952
 4.50-2.00 -0.443 -0.443 -0.443 -0.442 -0.439  9.07737  9.03981-14.63171   0.048
 4.50-1.50 -0.440 -0.440 -0.440 -0.438 -0.435  9.57726  9.53970-14.13165   0.086
 4.50-1.00 -0.437 -0.437 -0.437 -0.435 -0.431 10.07737 10.03981-13.63153   0.152
 4.50-0.50 -0.433 -0.434 -0.433 -0.431 -0.427 10.57726 10.53970-13.13159   0.271
 4.50 0.00 -0.429 -0.430 -0.429 -0.426 -0.421 11.07737 11.03981-12.63153   0.481
 4.50 0.50 -0.421 -0.423 -0.421 -0.419 -0.412 11.57703 11.53995-12.13136   0.855
 4.50 1.00 -0.408 -0.409 -0.408 -0.404 -0.396 12.07664 12.04060-11.63078   1.518
 4.50 1.25 -0.396 -0.398 -0.396 -0.392 -0.383 12.32607 12.29115-11.38022   2.021
 4.50 1.50 -0.380 -0.381 -0.380 -0.375 -0.365 12.57519 12.54195-11.12936   2.688
 4.50 1.75 -0.356 -0.358 -0.356 -0.350 -0.339 12.82394 12.79340-10.87790   3.570
 4.50 2.00 -0.323 -0.325 -0.323 -0.317 -0.304 13.07225 13.04532-10.62599   4.733
 4.50 2.25 -0.281 -0.284 -0.281 -0.274 -0.260 13.31970 13.29790-10.37345   6.260
 4.50 2.50 -0.230 -0.233 -0.230 -0.222 -0.207 13.56714 13.55047-10.12090   8.280
 4.50 2.75 -0.171 -0.175 -0.171 -0.163 -0.146 13.81476 13.80285 -9.86847  10.956
 4.50 3.00 -0.102 -0.105 -0.102 -0.092 -0.074 14.06258 14.05500 -9.61619  14.503
 4.50 3.20 -0.038 -0.041 -0.038 -0.028 -0.008 14.26137 14.25625 -9.41496  18.182
 4.50 3.40  0.036  0.032  0.036  0.046  0.066 14.46041 14.45723 -9.21400  22.815
 4.50 3.60  0.123  0.119  0.123  0.133  0.153 14.65971 14.65793 -9.01332  28.653
 4.50 3.80  0.225  0.221  0.225  0.235  0.254 14.85918 14.85843 -8.81280  36.010
 4.50 4.00  0.343  0.339  0.343  0.352  0.370 15.05881 15.05881 -8.61243  45.284
 4.50 4.20  0.481  0.478  0.481  0.489  0.506 15.25859 15.25908 -8.41220  56.986
 4.50 4.40  0.634  0.631  0.634  0.641  0.656 15.45842 15.45932 -8.21198  71.719
 4.50 4.60  0.803  0.800  0.803  0.809  0.821 15.65829 15.65953 -8.01178  90.270
 4.50 4.80  0.985  0.983  0.985  0.990  1.001 15.85817 15.85974 -7.81157 113.620
 4.50 5.00  1.174  1.173  1.174  1.178  1.187 16.05805 16.05994 -7.61137 143.010
 4.50 5.20  1.376  1.375  1.376  1.380  1.388 16.25778 16.26016 -7.41115 179.992
 4.50 5.40  1.581  1.580  1.581  1.585  1.591 16.45745 16.46039 -7.21093 226.526
 4.50 5.60  1.791  1.790  1.791  1.794  1.799 16.65708 16.66065 -7.01065 285.079
 4.50 5.80  2.005  2.005  2.005  2.008  2.012 16.85665 16.86101 -6.81026 358.740
 4.50 6.00  2.221  2.220  2.221  2.222  2.226 17.05614 17.06145 -6.60977 451.393
 4.50 6.25  2.495  2.494  2.495  2.496  2.499 17.30535 17.31228 -6.35895 601.357
 4.50 6.50  2.768  2.768  2.768  2.769  2.771 17.55425 17.56348 -6.10779 800.799
 4.50 6.75  3.049  3.049  3.049  3.050  3.052 17.80238 17.81525 -5.856021065.655
 4.50 7.00  3.331  3.331  3.331  3.332  3.332 18.04961 18.06782 -5.603451416.746
 4.50 7.25  3.613  3.613  3.613  3.614  3.614 18.29551 18.32170 -5.349581880.358
 4.50 7.50  3.891  3.891  3.891  3.891  3.891 18.53970 18.57715 -5.094152490.587
 4.50 7.75  4.157  4.157  4.157  4.157  4.158 18.78106 18.83494 -4.836403288.103
 4.50 8.00  4.409  4.408  4.409  4.409  4.409 19.01995 19.09482 -4.576594328.608
 4.55-2.00 -0.444 -0.444 -0.444 -0.443 -0.440  9.02735  8.98967-14.68173   0.043
 4.55-1.50 -0.442 -0.442 -0.442 -0.441 -0.438  9.52724  9.48968-14.18164   0.076
 4.55-1.00 -0.439 -0.439 -0.439 -0.437 -0.434 10.02735  9.98972-13.68152   0.136
 4.55-0.50 -0.434 -0.435 -0.434 -0.433 -0.429 10.52724 10.48968-13.18164   0.241
 4.55 0.00 -0.429 -0.430 -0.429 -0.427 -0.422 11.02735 10.98976-12.68152   0.429
 4.55 0.50 -0.422 -0.423 -0.422 -0.419 -0.414 11.52724 11.48968-12.18158   0.763
 4.55 1.00 -0.411 -0.412 -0.411 -0.408 -0.401 12.02735 11.98985-11.68152   1.356
 4.55 1.25 -0.403 -0.405 -0.403 -0.400 -0.392 12.27719 12.23991-11.43144   1.808
 4.55 1.50 -0.392 -0.394 -0.392 -0.388 -0.379 12.52699 12.48996-11.18131   2.410
 4.55 1.75 -0.376 -0.377 -0.376 -0.371 -0.361 12.77678 12.74017-10.93106   3.212
 4.55 2.00 -0.352 -0.354 -0.352 -0.347 -0.336 13.02653 12.99052-10.68069   4.279
 4.55 2.25 -0.317 -0.319 -0.317 -0.311 -0.299 13.27605 13.24102-10.43021   5.697
 4.55 2.50 -0.269 -0.271 -0.269 -0.263 -0.249 13.52530 13.49178-10.17954   7.580
 4.55 2.75 -0.206 -0.208 -0.206 -0.198 -0.183 13.77408 13.74308 -9.92829  10.070
 4.55 3.00 -0.128 -0.130 -0.128 -0.120 -0.104 14.02243 13.99484 -9.67654  13.357
 4.55 3.20 -0.056 -0.059 -0.056 -0.047 -0.031 14.22059 14.19684 -9.47449  16.710
 4.55 3.40  0.022  0.019  0.022  0.031  0.049 14.41869 14.39883 -9.27243  20.903
 4.55 3.60  0.109  0.106  0.109  0.119  0.137 14.61675 14.60082 -9.07038  26.147
 4.55 3.80  0.205  0.202  0.205  0.215  0.234 14.81479 14.80279 -8.86835  32.707
 4.55 4.00  0.313  0.310  0.313  0.323  0.342 15.01284 15.00475 -8.66635  40.911
 4.55 4.20  0.436  0.432  0.436  0.445  0.463 15.21151 15.20619 -8.46502  51.262
 4.55 4.40  0.572  0.569  0.572  0.581  0.597 15.41044 15.40737 -8.26397  64.293
 4.55 4.60  0.724  0.722  0.724  0.732  0.746 15.60967 15.60827 -8.06321  80.724
 4.55 4.80  0.891  0.889  0.891  0.897  0.909 15.80907 15.80896 -7.86261 101.443
 4.55 5.00  1.067  1.066  1.067  1.072  1.082 16.00860 16.00945 -7.66214 127.563
 4.55 5.20  1.258  1.257  1.258  1.262  1.270 16.20824 16.20967 -7.46180 160.525
 4.55 5.40  1.454  1.453  1.454  1.457  1.463 16.40789 16.40990 -7.26145 202.010
 4.55 5.60  1.656  1.656  1.656  1.659  1.664 16.60756 16.61013 -7.06110 254.225
 4.55 5.80  1.865  1.865  1.865  1.867  1.872 16.80723 16.81041 -6.86073 319.937
 4.55 6.00  2.076  2.075  2.076  2.077  2.081 17.00690 17.01073 -6.66035 402.634
 4.55 6.25  2.346  2.346  2.346  2.347  2.350 17.25636 17.26127 -6.40984 536.585
 4.55 6.50  2.616  2.616  2.616  2.617  2.619 17.50570 17.51202 -6.15927 714.964
 4.55 6.75  2.892  2.891  2.892  2.892  2.894 17.75477 17.76308 -5.90833 952.370
 4.55 7.00  3.172  3.172  3.172  3.172  3.173 18.00346 18.01452 -5.656991268.052
 4.55 7.25  3.455  3.455  3.455  3.456  3.456 18.25138 18.26645 -5.404991686.932
 4.55 7.50  3.738  3.738  3.738  3.738  3.739 18.49831 18.51917 -5.152122241.707
 4.55 7.75  4.016  4.016  4.016  4.016  4.017 18.74349 18.77374 -4.897602972.841
 4.55 8.00  4.286  4.286  4.286  4.286  4.287 18.98717 19.02979 -4.641683935.620
 4.60-2.00 -0.441 -0.442 -0.441 -0.440 -0.437  8.97736  8.93967-14.73166   0.038
 4.60-1.50 -0.441 -0.441 -0.441 -0.439 -0.436  9.47727  9.43965-14.23166   0.068
 4.60-1.00 -0.439 -0.439 -0.439 -0.438 -0.434  9.97731  9.93972-13.73166   0.121
 4.60-0.50 -0.437 -0.437 -0.437 -0.435 -0.432 10.47727 10.43965-13.23166   0.215
 4.60 0.00 -0.433 -0.434 -0.433 -0.431 -0.427 10.97731 10.93972-12.73166   0.382
 4.60 0.50 -0.427 -0.428 -0.427 -0.425 -0.420 11.47727 11.43965-12.23158   0.680
 4.60 1.00 -0.418 -0.419 -0.418 -0.415 -0.409 11.97727 11.93977-11.73142   1.209
 4.60 1.25 -0.411 -0.412 -0.411 -0.408 -0.401 12.22719 12.18979-11.48147   1.612
 4.60 1.50 -0.402 -0.404 -0.402 -0.399 -0.391 12.47712 12.43981-11.23151   2.149
 4.60 1.75 -0.391 -0.392 -0.391 -0.387 -0.378 12.72713 12.68985-10.98148   2.865
 4.60 2.00 -0.374 -0.376 -0.374 -0.369 -0.359 12.97713 12.93992-10.73142   3.820
 4.60 2.25 -0.350 -0.352 -0.350 -0.345 -0.334 13.22700 13.19000-10.48134   5.093
 4.60 2.50 -0.316 -0.318 -0.316 -0.310 -0.297 13.47683 13.44012-10.23121   6.789
 4.60 2.75 -0.267 -0.270 -0.267 -0.261 -0.247 13.72664 13.69036 -9.98102   9.048
 4.60 3.00 -0.202 -0.204 -0.202 -0.195 -0.179 13.97640 13.94072 -9.73072  12.053
 4.60 3.20 -0.135 -0.137 -0.135 -0.127 -0.110 14.17601 14.14111 -9.53028  15.155
 4.60 3.40 -0.054 -0.057 -0.054 -0.046 -0.029 14.37544 14.34167 -9.32963  19.044
 4.60 3.60  0.039  0.036  0.039  0.047  0.064 14.57463 14.54253 -9.12869  23.913
 4.60 3.80  0.146  0.144  0.146  0.155  0.171 14.77350 14.74379 -8.92741  29.995
 4.60 4.00  0.265  0.262  0.265  0.273  0.289 14.97206 14.94537 -8.72584  37.587
 4.60 4.20  0.395  0.392  0.395  0.402  0.418 15.17005 15.14744 -8.52381  47.011
 4.60 4.40  0.533  0.530  0.533  0.540  0.555 15.36803 15.34952 -8.32178  58.797
 4.60 4.60  0.680  0.677  0.680  0.687  0.700 15.56603 15.55158 -8.11975  73.539
 4.60 4.80  0.835  0.833  0.835  0.842  0.854 15.76413 15.75357 -7.91776  91.983
 4.60 5.00  0.999  0.997  0.999  1.004  1.015 15.96232 15.95549 -7.71580 115.059
 4.60 5.20  1.174  1.172  1.174  1.178  1.188 16.16097 16.15689 -7.51444 144.153
 4.60 5.40  1.356  1.355  1.356  1.359  1.367 16.35986 16.35802 -7.31335 180.796
 4.60 5.60  1.546  1.545  1.546  1.549  1.555 16.55903 16.55885 -7.11253 227.100
 4.60 5.80  1.744  1.743  1.744  1.746  1.751 16.75838 16.75950 -6.91186 285.554
 4.60 6.00  1.945  1.945  1.945  1.947  1.950 16.95780 16.96004 -6.71130 359.188
 4.60 6.25  2.207  2.206  2.207  2.208  2.211 17.20716 17.21062 -6.46072 478.647
 4.60 6.50  2.470  2.470  2.470  2.471  2.473 17.45652 17.46120 -6.21014 637.837
 4.60 6.75  2.735  2.735  2.735  2.736  2.737 17.70583 17.71190 -5.95945 849.886
 4.60 7.00  3.008  3.008  3.008  3.008  3.010 17.95506 17.96275 -5.708631132.276
 4.60 7.25  3.286  3.286  3.286  3.286  3.287 18.20383 18.21392 -5.457451507.813
 4.60 7.50  3.564  3.564  3.564  3.565  3.565 18.45209 18.46553 -5.205792006.788
 4.60 7.75  3.843  3.842  3.843  3.843  3.843 18.69948 18.71807 -4.953202667.984
 4.60 8.00  4.116  4.116  4.116  4.116  4.117 18.94611 18.97137 -4.699843543.810
 4.65-2.00 -0.440 -0.440 -0.440 -0.438 -0.435  8.92737  8.88969-14.78173   0.034
 4.65-1.50 -0.438 -0.439 -0.438 -0.437 -0.433  9.42732  9.38970-14.28166   0.061
 4.65-1.00 -0.437 -0.437 -0.437 -0.436 -0.432  9.92732  9.88969-13.78173   0.108
 4.65-0.50 -0.436 -0.436 -0.436 -0.434 -0.430 10.42732 10.38970-13.28166   0.192
 4.65 0.00 -0.434 -0.434 -0.434 -0.432 -0.428 10.92732 10.88969-12.78147   0.341
 4.65 0.50 -0.430 -0.431 -0.430 -0.428 -0.424 11.42732 11.38970-12.28158   0.606
 4.65 1.00 -0.424 -0.425 -0.424 -0.422 -0.417 11.92727 11.88975-11.78146   1.077
 4.65 1.25 -0.420 -0.421 -0.420 -0.418 -0.412 12.17722 12.13972-11.53152   1.436
 4.65 1.50 -0.414 -0.415 -0.414 -0.412 -0.405 12.42716 12.38970-11.28158   1.915
 4.65 1.75 -0.406 -0.407 -0.406 -0.403 -0.396 12.67719 12.63978-11.03152   2.554
 4.65 2.00 -0.394 -0.396 -0.394 -0.391 -0.383 12.92722 12.88986-10.78146   3.406
 4.65 2.25 -0.378 -0.379 -0.378 -0.374 -0.365 13.17720 13.13987-10.53144   4.541
 4.65 2.50 -0.354 -0.356 -0.354 -0.350 -0.339 13.42716 13.38987-10.28142   6.055
 4.65 2.75 -0.320 -0.322 -0.320 -0.315 -0.302 13.67710 13.63996-10.03131   8.073
 4.65 3.00 -0.271 -0.273 -0.271 -0.265 -0.251 13.92701 13.89009 -9.78120  10.763
 4.65 3.20 -0.220 -0.222 -0.220 -0.213 -0.197 14.12690 14.09019 -9.58112  13.546
 4.65 3.40 -0.155 -0.157 -0.155 -0.147 -0.130 14.32676 14.29033 -9.38104  17.046
 4.65 3.60 -0.075 -0.077 -0.075 -0.066 -0.049 14.52658 14.49051 -9.18089  21.448
 4.65 3.80  0.020  0.017  0.020  0.028  0.047 14.72635 14.69078 -8.98058  26.980
 4.65 4.00  0.132  0.129  0.132  0.140  0.159 14.92603 14.89115 -8.78015  33.930
 4.65 4.20  0.261  0.258  0.261  0.269  0.287 15.12548 15.09167 -8.57959  42.644
 4.65 4.40  0.405  0.402  0.405  0.412  0.429 15.32470 15.29242 -8.37882  53.558
 4.65 4.60  0.563  0.560  0.563  0.570  0.585 15.52367 15.49351 -8.17771  67.202
 4.65 4.80  0.731  0.729  0.731  0.737  0.751 15.72232 15.69501 -7.97621  84.225
 4.65 5.00  0.905  0.904  0.905  0.911  0.922 15.92070 15.89680 -7.77443 105.459
 4.65 5.20  1.085  1.084  1.085  1.089  1.099 16.11854 16.09899 -7.57228 131.838
 4.65 5.40  1.266  1.265  1.266  1.269  1.278 16.31639 16.30117 -7.37013 164.815
 4.65 5.60  1.449  1.448  1.449  1.452  1.459 16.51433 16.50329 -7.16802 206.074
 4.65 5.80  1.635  1.634  1.635  1.638  1.643 16.71251 16.70522 -6.96605 257.803
 4.65 6.00  1.824  1.824  1.824  1.826  1.831 16.91089 16.90698 -6.76422 322.689
 4.65 6.25  2.070  2.070  2.070  2.072  2.075 17.15932 17.15854 -6.51279 428.321
 4.65 6.50  2.320  2.320  2.320  2.321  2.324 17.40807 17.40977 -6.26162 569.455
 4.65 6.75  2.574  2.574  2.574  2.575  2.577 17.65718 17.66065 -6.01066 758.595
 4.65 7.00  2.832  2.831  2.832  2.832  2.834 17.90628 17.91153 -5.759701010.556
 4.65 7.25  3.099  3.098  3.099  3.099  3.100 18.15528 18.16252 -5.508731346.053
 4.65 7.50  3.367  3.367  3.367  3.367  3.368 18.40415 18.41364 -5.257751792.652
 4.65 7.75  3.637  3.637  3.637  3.637  3.638 18.65253 18.66523 -5.006192386.058
 4.65 8.00  3.905  3.905  3.905  3.905  3.905 18.90053 18.91719 -4.754243174.516
 4.70-2.00 -0.440 -0.440 -0.440 -0.438 -0.435  8.87737  8.83967-14.83150   0.030
 4.70-1.50 -0.437 -0.438 -0.437 -0.436 -0.432  9.37731  9.33965-14.33171   0.054
 4.70-1.00 -0.435 -0.436 -0.435 -0.434 -0.430  9.87731  9.83967-13.83150   0.096
 4.70-0.50 -0.434 -0.434 -0.434 -0.432 -0.428 10.37731 10.33965-13.33161   0.171
 4.70 0.00 -0.432 -0.432 -0.432 -0.430 -0.425 10.87731 10.83973-12.83150   0.304
 4.70 0.50 -0.429 -0.430 -0.429 -0.427 -0.423 11.37731 11.33965-12.33161   0.540
 4.70 1.00 -0.426 -0.426 -0.426 -0.424 -0.419 11.87726 11.83973-11.83150   0.960
 4.70 1.25 -0.423 -0.424 -0.423 -0.421 -0.416 12.12719 12.08969-11.58156   1.280
 4.70 1.50 -0.420 -0.420 -0.420 -0.417 -0.412 12.37712 12.33965-11.33161   1.707
 4.70 1.75 -0.415 -0.415 -0.415 -0.412 -0.406 12.62716 12.58972-11.08156   2.277
 4.70 2.00 -0.408 -0.409 -0.408 -0.405 -0.398 12.87720 12.83979-10.83150   3.036
 4.70 2.25 -0.398 -0.399 -0.398 -0.395 -0.387 13.12716 13.08982-10.58151   4.048
 4.70 2.50 -0.383 -0.384 -0.383 -0.380 -0.371 13.37712 13.33985-10.33152   5.397
 4.70 2.75 -0.361 -0.362 -0.361 -0.357 -0.347 13.62710 13.58992-10.08152   7.197
 4.70 3.00 -0.329 -0.331 -0.329 -0.324 -0.313 13.87708 13.83998 -9.83150   9.596
 4.70 3.20 -0.293 -0.295 -0.293 -0.288 -0.275 14.07704 14.04001 -9.63141  12.079
 4.70 3.40 -0.246 -0.248 -0.246 -0.240 -0.225 14.27698 14.24004 -9.43130  15.204
 4.70 3.60 -0.185 -0.187 -0.185 -0.178 -0.162 14.47691 14.44008 -9.23118  19.136
 4.70 3.80 -0.108 -0.111 -0.108 -0.101 -0.083 14.67683 14.64017 -9.03105  24.085
 4.70 4.00 -0.015 -0.018 -0.015 -0.007  0.011 14.87674 14.84029 -8.83091  30.312
 4.70 4.20  0.094  0.092  0.094  0.103  0.123 15.07657 15.04047 -8.63078  38.143
 4.70 4.40  0.222  0.219  0.222  0.231  0.251 15.27635 15.24070 -8.43066  47.988
 4.70 4.60  0.366  0.364  0.366  0.375  0.395 15.47607 15.44099 -8.23045  60.363
 4.70 4.80  0.526  0.523  0.526  0.534  0.553 15.67571 15.64139 -8.03003  75.900
 4.70 5.00  0.698  0.695  0.698  0.705  0.722 15.87524 15.84192 -7.82945  95.395
 4.70 5.20  0.881  0.879  0.881  0.888  0.903 16.07444 16.04277 -7.62860 119.791
 4.70 5.40  1.072  1.070  1.072  1.077  1.090 16.27337 16.24391 -7.42747 150.290
 4.70 5.60  1.267  1.266  1.267  1.271  1.281 16.47194 16.44546 -7.22590 188.317
 4.70 5.80  1.464  1.463  1.464  1.468  1.476 16.67020 16.64735 -7.02397 235.702
 4.70 6.00  1.660  1.660  1.660  1.663  1.670 16.86823 16.84942 -6.82189 294.799
 4.70 6.25  1.906  1.905  1.906  1.908  1.913 17.11545 17.10225 -6.56911 389.545
 4.70 6.50  2.150  2.150  2.150  2.152  2.155 17.36267 17.35507 -6.31632 514.742
 4.70 6.75  2.396  2.396  2.396  2.398  2.400 17.61050 17.60728 -6.06408 681.267
 4.70 7.00  2.631  2.630  2.631  2.631  2.633 17.85866 17.85914 -5.81220 903.148
 4.70 7.25  2.884  2.884  2.884  2.884  2.886 18.10724 18.11053 -5.560821202.425
 4.70 7.50  3.139  3.139  3.139  3.139  3.140 18.35583 18.36192 -5.309451600.874
 4.70 7.75  3.396  3.396  3.396  3.397  3.398 18.60443 18.61333 -5.058042131.317
 4.70 8.00  3.654  3.654  3.654  3.654  3.655 18.85303 18.86475 -4.806602837.486
 4.75-2.00 -0.440 -0.441 -0.440 -0.439 -0.435  8.82737  8.78965-14.88173   0.027
 4.75-1.50 -0.439 -0.439 -0.439 -0.437 -0.433  9.32736  9.28959-14.38164   0.048
 4.75-1.00 -0.437 -0.437 -0.437 -0.435 -0.431  9.82737  9.78972-13.88174   0.086
 4.75-0.50 -0.434 -0.435 -0.434 -0.433 -0.428 10.32736 10.28959-13.38164   0.152
 4.75 0.00 -0.431 -0.431 -0.431 -0.429 -0.425 10.82730 10.78972-12.88174   0.271
 4.75 0.50 -0.427 -0.428 -0.427 -0.425 -0.420 11.32736 11.28959-12.38164   0.481
 4.75 1.00 -0.424 -0.424 -0.424 -0.422 -0.416 11.82730 11.78972-11.88174   0.856
 4.75 1.25 -0.422 -0.422 -0.422 -0.419 -0.414 12.07723 12.03977-11.63163   1.141
 4.75 1.50 -0.419 -0.420 -0.419 -0.417 -0.411 12.32716 12.28981-11.38153   1.522
 4.75 1.75 -0.416 -0.416 -0.416 -0.413 -0.407 12.57720 12.53980-11.13146   2.029
 4.75 2.00 -0.412 -0.412 -0.412 -0.409 -0.403 12.82724 12.78979-10.88140   2.706
 4.75 2.25 -0.406 -0.406 -0.406 -0.403 -0.396 13.07720 13.03980-10.63147   3.608
 4.75 2.50 -0.397 -0.398 -0.397 -0.394 -0.387 13.32715 13.28981-10.38153   4.810
 4.75 2.75 -0.384 -0.385 -0.384 -0.381 -0.373 13.57713 13.53987-10.13147   6.414
 4.75 3.00 -0.365 -0.366 -0.365 -0.362 -0.353 13.82711 13.78993 -9.88140   8.553
 4.75 3.20 -0.343 -0.344 -0.343 -0.339 -0.329 14.02705 13.98997 -9.68137  10.766
 4.75 3.40 -0.312 -0.314 -0.312 -0.308 -0.297 14.22698 14.19001 -9.48134  13.552
 4.75 3.60 -0.271 -0.273 -0.271 -0.266 -0.254 14.42694 14.39006 -9.28127  17.059
 4.75 3.80 -0.217 -0.219 -0.217 -0.211 -0.197 14.62693 14.59010 -9.08117  21.474
 4.75 4.00 -0.148 -0.150 -0.148 -0.142 -0.126 14.82692 14.79014 -8.88107  27.030
 4.75 4.20 -0.062 -0.064 -0.062 -0.055 -0.037 15.02687 14.99019 -8.68105  34.021
 4.75 4.40  0.041  0.039  0.041  0.049  0.068 15.22679 15.19024 -8.48102  42.818
 4.75 4.60  0.163  0.161  0.163  0.171  0.191 15.42670 15.39033 -8.28090  53.887
 4.75 4.80  0.303  0.300  0.303  0.311  0.331 15.62657 15.59053 -8.08067  67.811
 4.75 5.00  0.457  0.455  0.457  0.466  0.486 15.82640 15.79078 -7.88042  85.323
 4.75 5.20  0.626  0.624  0.626  0.634  0.653 16.02612 15.99105 -7.68017 107.332
 4.75 5.40  0.806  0.803  0.806  0.813  0.831 16.22574 16.19139 -7.47990 134.977
 4.75 5.60  0.993  0.991  0.993  1.000  1.016 16.42527 16.39186 -7.27949 169.678
 4.75 5.80  1.188  1.186  1.188  1.193  1.207 16.62463 16.59257 -7.07876 213.157
 4.75 6.00  1.386  1.385  1.386  1.391  1.403 16.82380 16.79351 -6.87778 267.592
 4.75 6.25  1.639  1.638  1.639  1.643  1.652 17.07210 17.04529 -6.62606 354.938
 4.75 6.50  1.896  1.895  1.896  1.898  1.905 17.31994 17.29754 -6.37387 470.056
 4.75 6.75  2.150  2.150  2.150  2.152  2.157 17.56723 17.55040 -6.12096 621.106
 4.75 7.00  2.393  2.392  2.393  2.394  2.398 17.81451 17.80325 -5.86806 820.696
 4.75 7.25  2.641  2.641  2.641  2.642  2.645 18.06183 18.05599 -5.615341084.609
 4.75 7.50  2.889  2.889  2.889  2.890  2.892 18.30920 18.30857 -5.362811433.837
 4.75 7.75  3.137  3.136  3.137  3.137  3.138 18.55715 18.56063 -5.110671903.980
 4.75 8.00  3.384  3.384  3.384  3.384  3.385 18.80550 18.81231 -4.858862536.066
 4.80-2.00 -0.439 -0.440 -0.439 -0.438 -0.435  8.77735  8.73965-14.93181   0.024
 4.80-1.50 -0.439 -0.439 -0.439 -0.437 -0.433  9.27738  9.23955-14.43168   0.043
 4.80-1.00 -0.437 -0.438 -0.437 -0.436 -0.432  9.77736  9.73965-13.93182   0.076
 4.80-0.50 -0.436 -0.436 -0.436 -0.434 -0.430 10.27738 10.23955-13.43168   0.136
 4.80 0.00 -0.433 -0.434 -0.433 -0.432 -0.427 10.77735 10.73973-12.93144   0.241
 4.80 0.50 -0.430 -0.430 -0.430 -0.428 -0.423 11.27738 11.23955-12.43168   0.429
 4.80 1.00 -0.425 -0.426 -0.425 -0.423 -0.418 11.77728 11.73973-11.93144   0.763
 4.80 1.25 -0.422 -0.423 -0.422 -0.420 -0.414 12.02722 11.98977-11.68150   1.017
 4.80 1.50 -0.419 -0.419 -0.419 -0.416 -0.410 12.27715 12.23980-11.43156   1.356
 4.80 1.75 -0.415 -0.416 -0.415 -0.413 -0.406 12.52722 12.48981-11.18150   1.808
 4.80 2.00 -0.411 -0.411 -0.411 -0.408 -0.401 12.77728 12.73981-10.93144   2.411
 4.80 2.25 -0.406 -0.407 -0.406 -0.403 -0.396 13.02722 12.98981-10.68150   3.215
 4.80 2.50 -0.400 -0.400 -0.400 -0.397 -0.389 13.27715 13.23980-10.43156   4.288
 4.80 2.75 -0.391 -0.392 -0.391 -0.388 -0.380 13.52714 13.48985-10.18150   5.718
 4.80 3.00 -0.380 -0.381 -0.380 -0.377 -0.368 13.77714 13.73989 -9.93144   7.624
 4.80 3.20 -0.366 -0.367 -0.366 -0.363 -0.354 13.97714 13.93985 -9.73144   9.597
 4.80 3.40 -0.348 -0.349 -0.348 -0.345 -0.335 14.17715 14.13982 -9.53145  12.080
 4.80 3.60 -0.323 -0.324 -0.323 -0.319 -0.309 14.37712 14.33985 -9.33137  15.206
 4.80 3.80 -0.288 -0.289 -0.288 -0.284 -0.273 14.57706 14.53995 -9.13122  19.142
 4.80 4.00 -0.243 -0.244 -0.243 -0.238 -0.226 14.77699 14.74005 -8.93107  24.096
 4.80 4.20 -0.182 -0.183 -0.182 -0.177 -0.163 14.97696 14.94005 -8.73108  30.330
 4.80 4.40 -0.106 -0.108 -0.106 -0.100 -0.085 15.17694 15.14005 -8.53109  38.176
 4.80 4.60 -0.012 -0.014 -0.012 -0.006  0.010 15.37687 15.34013 -8.33110  48.050
 4.80 4.80  0.099  0.097  0.099  0.106  0.124 15.57676 15.54029 -8.13109  60.477
 4.80 5.00  0.228  0.226  0.228  0.236  0.255 15.77663 15.74044 -7.93107  76.115
 4.80 5.20  0.376  0.374  0.376  0.384  0.403 15.97649 15.94058 -7.73085  95.786
 4.80 5.40  0.539  0.536  0.539  0.546  0.565 16.17632 16.14073 -7.53062 120.528
 4.80 5.60  0.713  0.710  0.713  0.720  0.738 16.37614 16.34091 -7.33040 151.646
 4.80 5.80  0.896  0.894  0.896  0.903  0.920 16.57590 16.54119 -7.13018 190.762
 4.80 6.00  1.087  1.085  1.087  1.093  1.108 16.77561 16.74154 -6.92996 239.914
 4.80 6.25  1.331  1.329  1.331  1.336  1.348 17.02502 16.99216 -6.67930 319.309
 4.80 6.50  1.579  1.578  1.579  1.583  1.594 17.27416 17.24304 -6.42829 424.594
 4.80 6.75  1.832  1.831  1.832  1.836  1.844 17.52281 17.49451 -6.17679 563.749
 4.80 7.00  2.088  2.087  2.088  2.091  2.097 17.77100 17.74648 -5.92482 747.338
 4.80 7.25  2.340  2.340  2.340  2.342  2.347 18.01851 17.99905 -5.67216 988.298
 4.80 7.50  2.596  2.596  2.596  2.598  2.601 18.26576 18.25188 -5.419301305.782
 4.80 7.75  2.846  2.846  2.846  2.847  2.850 18.51288 18.50485 -5.166361724.500
 4.80 8.00  3.094  3.094  3.094  3.095  3.096 18.75982 18.75800 -4.913282276.142
 4.85-2.00 -0.439 -0.440 -0.439 -0.438 -0.435  8.72738  8.68966-14.98172   0.021
 4.85-1.50 -0.438 -0.438 -0.438 -0.436 -0.433  9.22737  9.18977-14.48162   0.038
 4.85-1.00 -0.436 -0.437 -0.436 -0.435 -0.431  9.72738  9.68966-13.98172   0.068
 4.85-0.50 -0.435 -0.435 -0.435 -0.433 -0.429 10.22737 10.18977-13.48162   0.121
 4.85 0.00 -0.434 -0.434 -0.434 -0.432 -0.428 10.72730 10.68966-12.98172   0.215
 4.85 0.50 -0.432 -0.432 -0.432 -0.430 -0.425 11.22737 11.18977-12.48162   0.382
 4.85 1.00 -0.428 -0.429 -0.428 -0.427 -0.421 11.72730 11.68975-11.98172   0.680
 4.85 1.25 -0.426 -0.427 -0.426 -0.424 -0.419 11.97734 11.93976-11.73167   0.907
 4.85 1.50 -0.423 -0.424 -0.423 -0.421 -0.416 12.22737 12.18977-11.48162   1.209
 4.85 1.75 -0.420 -0.420 -0.420 -0.418 -0.412 12.47735 12.43976-11.23167   1.612
 4.85 2.00 -0.416 -0.416 -0.416 -0.413 -0.407 12.72730 12.68975-10.98172   2.149
 4.85 2.25 -0.410 -0.411 -0.410 -0.407 -0.401 12.97721 12.93976-10.73160   2.866
 4.85 2.50 -0.403 -0.403 -0.403 -0.400 -0.393 13.22712 13.18977-10.48149   3.822
 4.85 2.75 -0.394 -0.395 -0.394 -0.391 -0.384 13.47717 13.43981-10.23138   5.096
 4.85 3.00 -0.384 -0.384 -0.384 -0.381 -0.372 13.72722 13.68984 -9.98130   6.795
 4.85 3.20 -0.373 -0.374 -0.373 -0.370 -0.361 13.92718 13.88981 -9.78137   8.554
 4.85 3.40 -0.361 -0.362 -0.361 -0.357 -0.348 14.12714 14.08979 -9.58145  10.768
 4.85 3.60 -0.344 -0.345 -0.344 -0.341 -0.331 14.32710 14.28982 -9.38145  13.555
 4.85 3.80 -0.322 -0.323 -0.322 -0.319 -0.308 14.52708 14.48992 -9.18137  17.062
 4.85 4.00 -0.293 -0.295 -0.293 -0.290 -0.279 14.72705 14.69002 -8.98130  21.478
 4.85 4.20 -0.254 -0.255 -0.254 -0.249 -0.238 14.92698 14.89003 -8.78127  27.035
 4.85 4.40 -0.202 -0.204 -0.202 -0.198 -0.186 15.12690 15.09005 -8.58124  34.030
 4.85 4.60 -0.136 -0.138 -0.136 -0.132 -0.118 15.32685 15.29009 -8.38116  42.834
 4.85 4.80 -0.054 -0.055 -0.054 -0.048 -0.034 15.52683 15.49018 -8.18102  53.916
 4.85 5.00  0.045  0.043  0.045  0.050  0.065 15.72681 15.69028 -7.98088  67.863
 4.85 5.20  0.165  0.163  0.165  0.171  0.186 15.92675 15.89042 -7.78086  85.410
 4.85 5.40  0.301  0.299  0.301  0.307  0.324 16.12666 16.09055 -7.58084 107.489
 4.85 5.60  0.454  0.453  0.454  0.461  0.477 16.32652 16.29067 -7.38079 135.271
 4.85 5.80  0.623  0.621  0.623  0.629  0.645 16.52636 16.49079 -7.18066 170.224
 4.85 6.00  0.802  0.800  0.802  0.808  0.823 16.72616 16.69090 -6.98047 214.194
 4.85 6.25  1.036  1.034  1.036  1.041  1.055 16.97589 16.94125 -6.73011 285.378
 4.85 6.50  1.277  1.275  1.277  1.281  1.293 17.22557 17.19173 -6.47965 380.085
 4.85 6.75  1.520  1.519  1.520  1.524  1.535 17.47501 17.44232 -6.22911 505.949
 4.85 7.00  1.771  1.770  1.771  1.775  1.783 17.72420 17.69311 -5.97840 672.977
 4.85 7.25  2.018  2.017  2.018  2.021  2.028 17.97290 17.94440 -5.72706 893.887
 4.85 7.50  2.272  2.272  2.272  2.274  2.280 18.22116 18.19618 -5.475211185.514
 4.85 7.75  2.524  2.524  2.524  2.526  2.530 18.46891 18.44858 -5.222791569.075
 4.85 8.00  2.779  2.778  2.779  2.780  2.783 18.71617 18.70157 -4.969812072.863
 4.90-2.00 -0.441 -0.441 -0.441 -0.439 -0.437  8.67733  8.63969-15.03166   0.019
 4.90-1.50 -0.439 -0.439 -0.439 -0.438 -0.434  9.17725  9.13956-14.53165   0.034
 4.90-1.00 -0.437 -0.437 -0.437 -0.436 -0.432  9.67733  9.63969-14.03161   0.061
 4.90-0.50 -0.435 -0.435 -0.435 -0.433 -0.429 10.17725 10.13956-13.53165   0.108
 4.90 0.00 -0.432 -0.433 -0.432 -0.431 -0.427 10.67733 10.63969-13.03161   0.192
 4.90 0.50 -0.430 -0.431 -0.430 -0.428 -0.424 11.17725 11.13956-12.53165   0.341
 4.90 1.00 -0.428 -0.428 -0.428 -0.426 -0.421 11.67733 11.63969-12.03161   0.606
 4.90 1.25 -0.426 -0.427 -0.426 -0.424 -0.419 11.92729 11.88963-11.78163   0.808
 4.90 1.50 -0.425 -0.425 -0.425 -0.423 -0.417 12.17725 12.13956-11.53165   1.077
 4.90 1.75 -0.423 -0.423 -0.423 -0.421 -0.415 12.42724 12.38968-11.28161   1.436
 4.90 2.00 -0.420 -0.420 -0.420 -0.418 -0.412 12.67724 12.63979-11.03156   1.916
 4.90 2.25 -0.416 -0.417 -0.416 -0.414 -0.408 12.92725 12.88985-10.78153   2.555
 4.90 2.50 -0.411 -0.412 -0.411 -0.409 -0.402 13.17725 13.13988-10.53151   3.406
 4.90 2.75 -0.404 -0.404 -0.404 -0.401 -0.394 13.42725 13.38988-10.28148   4.542
 4.90 3.00 -0.394 -0.395 -0.394 -0.392 -0.384 13.67724 13.63988-10.03147   6.056
 4.90 3.20 -0.384 -0.385 -0.384 -0.382 -0.374 13.87724 13.83988 -9.83148   7.624
 4.90 3.40 -0.372 -0.373 -0.372 -0.369 -0.361 14.07725 14.03988 -9.63150   9.597
 4.90 3.60 -0.357 -0.358 -0.357 -0.354 -0.345 14.27721 14.23989 -9.43147  12.082
 4.90 3.80 -0.339 -0.340 -0.339 -0.335 -0.326 14.47713 14.43993 -9.23140  15.209
 4.90 4.00 -0.316 -0.317 -0.316 -0.312 -0.302 14.67706 14.63998 -9.03133  19.145
 4.90 4.20 -0.288 -0.289 -0.288 -0.284 -0.273 14.87702 14.84007 -8.83128  24.099
 4.90 4.40 -0.252 -0.253 -0.252 -0.247 -0.236 15.07698 15.04015 -8.63123  30.334
 4.90 4.60 -0.205 -0.207 -0.205 -0.201 -0.189 15.27694 15.24019 -8.43119  38.183
 4.90 4.80 -0.147 -0.148 -0.147 -0.142 -0.130 15.47691 15.44019 -8.23114  48.062
 4.90 5.00 -0.075 -0.076 -0.075 -0.070 -0.057 15.67688 15.64018 -8.03110  60.497
 4.90 5.20  0.015  0.013  0.015  0.020  0.033 15.87680 15.84031 -7.83104  76.144
 4.90 5.40  0.122  0.120  0.122  0.127  0.141 16.07672 16.04044 -7.63096  95.836
 4.90 5.60  0.248  0.246  0.248  0.253  0.267 16.27662 16.24054 -7.43086 120.616
 4.90 5.80  0.393  0.391  0.393  0.398  0.411 16.47653 16.44061 -7.23073 151.798
 4.90 6.00  0.552  0.550  0.552  0.556  0.570 16.67642 16.64068 -7.03058 191.033
 4.90 6.25  0.771  0.770  0.771  0.775  0.788 16.92627 16.89087 -6.78040 254.599
 4.90 6.50  1.003  1.002  1.003  1.007  1.019 17.17609 17.14114 -6.53018 339.264
 4.90 6.75  1.236  1.235  1.236  1.240  1.250 17.42578 17.39145 -6.27986 451.994
 4.90 7.00  1.484  1.483  1.484  1.487  1.496 17.67532 17.64187 -6.02942 601.991
 4.90 7.25  1.728  1.727  1.728  1.731  1.739 17.92466 17.89248 -5.77882 801.282
 4.90 7.50  1.977  1.976  1.977  1.979  1.986 18.17377 18.14333 -5.527981065.723
 4.90 7.75  2.223  2.223  2.223  2.225  2.230 18.42257 18.39466 -5.276641415.464
 4.90 8.00  2.474  2.473  2.474  2.475  2.479 18.67108 18.64640 -5.024891877.754
 4.95-2.00 -0.442 -0.443 -0.442 -0.442 -0.439  8.62737  8.58961-15.08166   0.017
 4.95-1.50 -0.442 -0.442 -0.442 -0.441 -0.438  9.12743  9.08955-14.58170   0.030
 4.95-1.00 -0.440 -0.440 -0.440 -0.439 -0.436  9.62737  9.58973-14.08166   0.054
 4.95-0.50 -0.438 -0.438 -0.438 -0.437 -0.433 10.12743 10.08955-13.58170   0.096
 4.95 0.00 -0.435 -0.435 -0.435 -0.433 -0.429 10.62737 10.58973-13.08160   0.171
 4.95 0.50 -0.431 -0.432 -0.431 -0.430 -0.425 11.12743 11.08955-12.58170   0.304
 4.95 1.00 -0.427 -0.428 -0.427 -0.425 -0.420 11.62737 11.58973-12.08160   0.540
 4.95 1.25 -0.425 -0.426 -0.425 -0.423 -0.418 11.87724 11.83964-11.83165   0.720
 4.95 1.50 -0.423 -0.424 -0.423 -0.421 -0.416 12.12710 12.08955-11.58170   0.960
 4.95 1.75 -0.421 -0.421 -0.421 -0.419 -0.413 12.37718 12.33964-11.33162   1.280
 4.95 2.00 -0.418 -0.419 -0.418 -0.416 -0.410 12.62726 12.58973-11.08155   1.707
 4.95 2.25 -0.416 -0.416 -0.416 -0.413 -0.407 12.87718 12.83982-10.83154   2.277
 4.95 2.50 -0.412 -0.413 -0.412 -0.410 -0.404 13.12711 13.08991-10.58153   3.036
 4.95 2.75 -0.408 -0.409 -0.408 -0.406 -0.399 13.37718 13.33987-10.33152   4.048
 4.95 3.00 -0.402 -0.403 -0.402 -0.400 -0.393 13.62726 13.58984-10.08150   5.398
 4.95 3.20 -0.395 -0.396 -0.395 -0.393 -0.385 13.82720 13.78987 -9.88151   6.795
 4.95 3.40 -0.386 -0.387 -0.386 -0.384 -0.376 14.02714 13.98989 -9.68153   8.554
 4.95 3.60 -0.375 -0.375 -0.375 -0.372 -0.364 14.22709 14.18992 -9.48151  10.769
 4.95 3.80 -0.359 -0.360 -0.359 -0.356 -0.348 14.42706 14.38994 -9.28145  13.556
 4.95 4.00 -0.340 -0.341 -0.340 -0.337 -0.329 14.62706 14.58995 -9.08139  17.064
 4.95 4.20 -0.315 -0.316 -0.315 -0.312 -0.303 14.82708 14.78993 -8.88138  21.480
 4.95 4.40 -0.285 -0.286 -0.285 -0.282 -0.272 15.02710 14.98992 -8.68137  27.039
 4.95 4.60 -0.247 -0.248 -0.247 -0.244 -0.234 15.22708 15.18996 -8.48132  34.036
 4.95 4.80 -0.201 -0.202 -0.201 -0.198 -0.186 15.42702 15.39007 -8.28123  42.843
 4.95 5.00 -0.145 -0.146 -0.145 -0.141 -0.129 15.62696 15.59017 -8.08113  53.928
 4.95 5.20 -0.076 -0.077 -0.076 -0.072 -0.059 15.82689 15.79021 -7.88109  67.878
 4.95 5.40  0.006  0.004  0.006  0.010  0.023 16.02682 15.99024 -7.68106  85.435
 4.95 5.60  0.105  0.104  0.105  0.110  0.123 16.22674 16.19029 -7.48099 107.531
 4.95 5.80  0.223  0.222  0.223  0.227  0.240 16.42665 16.39039 -7.28089 135.340
 4.95 6.00  0.356  0.355  0.356  0.361  0.373 16.62654 16.59051 -7.08077 170.336
 4.95 6.25  0.551  0.550  0.551  0.555  0.567 16.87634 16.84074 -6.83058 227.039
 4.95 6.50  0.765  0.764  0.765  0.769  0.779 17.12613 17.09096 -6.58038 302.587
 4.95 6.75  0.985  0.984  0.985  0.988  0.997 17.37593 17.34118 -6.33016 403.247
 4.95 7.00  1.225  1.224  1.225  1.228  1.236 17.62572 17.59140 -6.07993 537.316
 4.95 7.25  1.468  1.467  1.468  1.470  1.478 17.87534 17.84182 -5.82956 715.740
 4.95 7.50  1.715  1.714  1.715  1.717  1.724 18.12483 18.09237 -5.57906 953.056
 4.95 7.75  1.959  1.959  1.959  1.961  1.966 18.37420 18.34304 -5.328361268.229
 4.95 8.00  2.207  2.206  2.207  2.208  2.212 18.62346 18.59384 -5.077481686.682
 5.00-2.00 -0.443 -0.443 -0.443 -0.442 -0.440  8.57738  8.53970-15.13165   0.015
 5.00-1.50 -0.442 -0.442 -0.442 -0.442 -0.440  9.07737  9.03981-14.63171   0.027
 5.00-1.00 -0.442 -0.442 -0.442 -0.441 -0.439  9.57738  9.53970-14.13165   0.048
 5.00-0.50 -0.441 -0.441 -0.441 -0.440 -0.438 10.07737 10.03981-13.63171   0.086
 5.00 0.00 -0.439 -0.439 -0.439 -0.438 -0.436 10.57738 10.53970-13.13165   0.152
 5.00 0.50 -0.436 -0.437 -0.436 -0.435 -0.432 11.07737 11.03981-12.63171   0.271
 5.00 1.00 -0.432 -0.433 -0.432 -0.431 -0.427 11.57738 11.53970-12.13159   0.481
 5.00 1.25 -0.430 -0.430 -0.430 -0.428 -0.424 11.82738 11.78976-11.88165   0.642
 5.00 1.50 -0.427 -0.427 -0.427 -0.425 -0.420 12.07737 12.03981-11.63171   0.856
 5.00 1.75 -0.424 -0.424 -0.424 -0.422 -0.417 12.32732 12.28976-11.38165   1.141
 5.00 2.00 -0.420 -0.420 -0.420 -0.418 -0.412 12.57726 12.53970-11.13159   1.522
 5.00 2.25 -0.416 -0.417 -0.416 -0.414 -0.408 12.82732 12.78976-10.88155   2.029
 5.00 2.50 -0.412 -0.413 -0.412 -0.410 -0.403 13.07737 13.03981-10.63153   2.706
 5.00 2.75 -0.408 -0.408 -0.408 -0.405 -0.398 13.32734 13.28983-10.38153   3.608
 5.00 3.00 -0.402 -0.403 -0.402 -0.400 -0.393 13.57726 13.53983-10.13153   4.811
 5.00 3.20 -0.397 -0.398 -0.397 -0.395 -0.387 13.77716 13.73982 -9.93153   6.056
 5.00 3.40 -0.391 -0.392 -0.391 -0.388 -0.381 13.97706 13.93981 -9.73153   7.624
 5.00 3.60 -0.383 -0.384 -0.383 -0.380 -0.372 14.17703 14.13984 -9.53150   9.598
 5.00 3.80 -0.373 -0.373 -0.373 -0.370 -0.362 14.37709 14.33990 -9.33146  12.082
 5.00 4.00 -0.359 -0.360 -0.359 -0.356 -0.348 14.57715 14.53995 -9.13141  15.210
 5.00 4.20 -0.340 -0.341 -0.340 -0.337 -0.329 14.77709 14.73990 -8.93139  19.146
 5.00 4.40 -0.316 -0.317 -0.316 -0.314 -0.305 14.97703 14.93984 -8.73136  24.101
 5.00 4.60 -0.286 -0.287 -0.286 -0.283 -0.274 15.17699 15.13986 -8.53132  30.338
 5.00 4.80 -0.248 -0.248 -0.248 -0.244 -0.235 15.37695 15.33997 -8.33128  38.189
 5.00 5.00 -0.201 -0.202 -0.201 -0.198 -0.188 15.57692 15.54008 -8.13124  48.071
 5.00 5.20 -0.143 -0.144 -0.143 -0.140 -0.130 15.77681 15.74013 -7.93121  60.507
 5.00 5.40 -0.074 -0.075 -0.074 -0.070 -0.060 15.97670 15.94018 -7.73117  76.159
 5.00 5.60  0.008  0.007  0.008  0.012  0.022 16.17665 16.14026 -7.53110  95.859
 5.00 5.80  0.105  0.104  0.105  0.109  0.121 16.37667 16.34036 -7.33100 120.654
 5.00 6.00  0.219  0.217  0.219  0.222  0.234 16.57669 16.54045 -7.13089 151.859
 5.00 6.25  0.385  0.384  0.385  0.389  0.400 16.82648 16.79053 -6.88075 202.424
 5.00 6.50  0.575  0.574  0.575  0.579  0.589 17.07628 17.04060 -6.63060 269.807
 5.00 6.75  0.785  0.784  0.785  0.788  0.797 17.32614 17.29081 -6.38040 359.609
 5.00 7.00  1.003  1.002  1.003  1.005  1.013 17.57600 17.54108 -6.13018 479.264
 5.00 7.25  1.240  1.239  1.240  1.242  1.249 17.82580 17.79141 -5.87995 638.603
 5.00 7.50  1.483  1.482  1.483  1.485  1.490 18.07555 18.04179 -5.62967 850.735
 5.00 7.75  1.726  1.725  1.726  1.727  1.732 18.32510 18.29222 -5.379211132.979
 5.00 8.00  1.972  1.972  1.972  1.974  1.977 18.57449 18.54270 -5.128601508.439
 5.05-2.00 -0.441 -0.441 -0.441 -0.440 -0.438  8.52737  8.48968-15.18164   0.014
 5.05-1.50 -0.441 -0.441 -0.441 -0.440 -0.438  9.02735  8.98963-14.68173   0.024
 5.05-1.00 -0.441 -0.441 -0.441 -0.440 -0.438  9.52737  9.48968-14.18164   0.043
 5.05-0.50 -0.440 -0.440 -0.440 -0.440 -0.438 10.02735  9.98963-13.68173   0.076
 5.05 0.00 -0.440 -0.440 -0.440 -0.439 -0.437 10.52737 10.48968-13.18164   0.136
 5.05 0.50 -0.439 -0.439 -0.439 -0.438 -0.436 11.02735 10.98967-12.68173   0.241
 5.05 1.00 -0.437 -0.437 -0.437 -0.436 -0.433 11.52737 11.48968-12.18164   0.429
 5.05 1.25 -0.435 -0.436 -0.435 -0.434 -0.432 11.77737 11.73968-11.93169   0.572
 5.05 1.50 -0.434 -0.434 -0.434 -0.433 -0.430 12.02735 11.98967-11.68173   0.763
 5.05 1.75 -0.431 -0.432 -0.431 -0.430 -0.427 12.27730 12.23967-11.43165   1.017
 5.05 2.00 -0.429 -0.429 -0.429 -0.427 -0.423 12.52724 12.48968-11.18158   1.356
 5.05 2.25 -0.425 -0.425 -0.425 -0.423 -0.419 12.77730 12.73969-10.93154   1.808
 5.05 2.50 -0.420 -0.421 -0.420 -0.419 -0.414 13.02735 12.98972-10.68152   2.412
 5.05 2.75 -0.415 -0.416 -0.415 -0.413 -0.408 13.27730 13.23977-10.43151   3.216
 5.05 3.00 -0.409 -0.409 -0.409 -0.406 -0.400 13.52724 13.48982-10.18151   4.288
 5.05 3.20 -0.403 -0.404 -0.403 -0.401 -0.394 13.72729 13.68981 -9.98151   5.398
 5.05 3.40 -0.396 -0.397 -0.396 -0.394 -0.387 13.92733 13.88981 -9.78152   6.796
 5.05 3.60 -0.389 -0.390 -0.389 -0.386 -0.379 14.12730 14.08981 -9.58151   8.555
 5.05 3.80 -0.380 -0.381 -0.380 -0.377 -0.369 14.32721 14.28981 -9.38148  10.770
 5.05 4.00 -0.369 -0.369 -0.369 -0.366 -0.357 14.52711 14.48982 -9.18144  13.557
 5.05 4.20 -0.355 -0.356 -0.355 -0.352 -0.343 14.72703 14.68984 -8.98139  17.066
 5.05 4.40 -0.337 -0.338 -0.337 -0.334 -0.324 14.92697 14.88987 -8.78134  21.482
 5.05 4.60 -0.313 -0.314 -0.313 -0.310 -0.301 15.12695 15.08994 -8.58130  27.042
 5.05 4.80 -0.283 -0.284 -0.283 -0.280 -0.271 15.32697 15.29002 -8.38127  34.040
 5.05 5.00 -0.246 -0.247 -0.246 -0.243 -0.234 15.52699 15.49010 -8.18125  42.850
 5.05 5.20 -0.198 -0.199 -0.198 -0.195 -0.186 15.72698 15.69012 -7.98119  53.936
 5.05 5.40 -0.141 -0.142 -0.141 -0.138 -0.129 15.92696 15.89015 -7.78113  67.889
 5.05 5.60 -0.071 -0.072 -0.071 -0.068 -0.059 16.12690 16.09021 -7.58108  85.452
 5.05 5.80  0.011  0.011  0.011  0.014  0.023 16.32681 16.29029 -7.38103 107.558
 5.05 6.00  0.109  0.108  0.109  0.112  0.121 16.52673 16.49038 -7.18098 135.380
 5.05 6.25  0.255  0.254  0.255  0.258  0.267 16.77663 16.74047 -6.93083 180.465
 5.05 6.50  0.426  0.425  0.426  0.429  0.438 17.02653 16.99056 -6.68069 240.554
 5.05 6.75  0.620  0.620  0.620  0.623  0.631 17.27639 17.24074 -6.43054 320.645
 5.05 7.00  0.820  0.819  0.820  0.822  0.830 17.52621 17.49094 -6.18039 427.378
 5.05 7.25  1.047  1.046  1.047  1.049  1.055 17.77599 17.74114 -5.93014 569.552
 5.05 7.50  1.282  1.282  1.282  1.284  1.290 18.02572 17.99136 -5.67985 758.914
 5.05 7.75  1.521  1.521  1.521  1.523  1.527 18.27540 18.24168 -5.429541011.059
 5.05 8.00  1.765  1.764  1.765  1.766  1.769 18.52505 18.49206 -5.179211346.757
 5.10-2.00 -0.437 -0.437 -0.437 -0.436 -0.435  8.47741  8.43965-15.23166   0.012
 5.10-1.50 -0.437 -0.437 -0.437 -0.436 -0.435  8.97731  8.93962-14.73166   0.021
 5.10-1.00 -0.437 -0.437 -0.437 -0.436 -0.435  9.47741  9.43965-14.23166   0.038
 5.10-0.50 -0.437 -0.437 -0.437 -0.436 -0.435  9.97731  9.93962-13.73166   0.068
 5.10 0.00 -0.437 -0.437 -0.437 -0.436 -0.434 10.47741 10.43965-13.23166   0.121
 5.10 0.50 -0.436 -0.436 -0.436 -0.436 -0.434 10.97731 10.93967-12.73166   0.215
 5.10 1.00 -0.436 -0.436 -0.436 -0.435 -0.433 11.47727 11.43965-12.23158   0.382
 5.10 1.25 -0.435 -0.435 -0.435 -0.434 -0.432 11.72727 11.68966-11.98162   0.510
 5.10 1.50 -0.434 -0.434 -0.434 -0.434 -0.432 11.97727 11.93967-11.73166   0.680
 5.10 1.75 -0.433 -0.433 -0.433 -0.432 -0.430 12.22727 12.18966-11.48162   0.907
 5.10 2.00 -0.432 -0.432 -0.432 -0.431 -0.429 12.47727 12.43965-11.23158   1.209
 5.10 2.25 -0.430 -0.430 -0.430 -0.429 -0.427 12.72727 12.68968-10.98162   1.612
 5.10 2.50 -0.428 -0.428 -0.428 -0.427 -0.424 12.97727 12.93972-10.73166   2.149
 5.10 2.75 -0.425 -0.425 -0.425 -0.423 -0.420 13.22727 13.18976-10.48158   2.866
 5.10 3.00 -0.421 -0.421 -0.421 -0.419 -0.415 13.47727 13.43981-10.23151   3.822
 5.10 3.20 -0.416 -0.417 -0.416 -0.415 -0.410 13.67723 13.63979-10.03157   4.811
 5.10 3.40 -0.411 -0.411 -0.411 -0.409 -0.404 13.87719 13.83978 -9.83163   6.057
 5.10 3.60 -0.404 -0.405 -0.404 -0.402 -0.397 14.07716 14.03977 -9.63161   7.625
 5.10 3.80 -0.396 -0.396 -0.396 -0.394 -0.388 14.27714 14.23979 -9.43152   9.599
 5.10 4.00 -0.385 -0.386 -0.385 -0.383 -0.376 14.47712 14.43981 -9.23144  12.084
 5.10 4.20 -0.373 -0.374 -0.373 -0.370 -0.363 14.67711 14.63983 -9.03143  15.211
 5.10 4.40 -0.357 -0.358 -0.357 -0.354 -0.347 14.87709 14.83986 -8.83143  19.148
 5.10 4.60 -0.337 -0.338 -0.337 -0.335 -0.326 15.07706 15.03989 -8.63140  24.103
 5.10 4.80 -0.313 -0.314 -0.313 -0.310 -0.301 15.27702 15.23993 -8.43134  30.341
 5.10 5.00 -0.281 -0.282 -0.281 -0.278 -0.269 15.47698 15.43996 -8.23129  38.194
 5.10 5.20 -0.242 -0.243 -0.242 -0.239 -0.230 15.67694 15.64000 -8.03125  48.076
 5.10 5.40 -0.194 -0.195 -0.194 -0.191 -0.181 15.87691 15.84005 -7.83121  60.515
 5.10 5.60 -0.135 -0.136 -0.135 -0.132 -0.123 16.07689 16.04011 -7.63116  76.172
 5.10 5.80 -0.064 -0.065 -0.064 -0.061 -0.052 16.27686 16.24019 -7.43112  95.880
 5.10 6.00  0.019  0.018  0.019  0.021  0.030 16.47683 16.44028 -7.23107 120.685
 5.10 6.25  0.146  0.145  0.146  0.148  0.156 16.72672 16.69037 -6.98101 160.887
 5.10 6.50  0.296  0.296  0.296  0.299  0.306 16.97658 16.94047 -6.73095 214.469
 5.10 6.75  0.475  0.474  0.475  0.477  0.484 17.22642 17.19060 -6.48075 285.888
 5.10 7.00  0.667  0.666  0.667  0.669  0.675 17.47625 17.44075 -6.23055 381.067
 5.10 7.25  0.881  0.880  0.881  0.883  0.888 17.72610 17.69094 -5.98040 507.881
 5.10 7.50  1.111  1.110  1.111  1.112  1.117 17.97594 17.94116 -5.73025 676.828
 5.10 7.75  1.345  1.344  1.345  1.346  1.350 18.22569 18.19142 -5.47997 901.873
 5.10 8.00  1.584  1.583  1.584  1.585  1.588 18.47538 18.44170 -5.229591201.614
 5.15-2.00 -0.430 -0.430 -0.430 -0.430 -0.428  8.42732  8.38970-15.28166   0.011
 5.15-1.50 -0.430 -0.430 -0.430 -0.430 -0.428  8.92732  8.88964-14.78173   0.019
 5.15-1.00 -0.430 -0.430 -0.430 -0.430 -0.428  9.42732  9.38970-14.28166   0.034
 5.15-0.50 -0.430 -0.430 -0.430 -0.430 -0.428  9.92732  9.88964-13.78173   0.061
 5.15 0.00 -0.430 -0.430 -0.430 -0.430 -0.428 10.42732 10.38970-13.28166   0.108
 5.15 0.50 -0.430 -0.430 -0.430 -0.430 -0.428 10.92732 10.88964-12.78173   0.192
 5.15 1.00 -0.430 -0.430 -0.430 -0.429 -0.428 11.42732 11.38970-12.28158   0.341
 5.15 1.25 -0.430 -0.430 -0.430 -0.429 -0.428 11.67730 11.63967-12.03166   0.455
 5.15 1.50 -0.429 -0.430 -0.429 -0.429 -0.427 11.92727 11.88964-11.78173   0.606
 5.15 1.75 -0.429 -0.429 -0.429 -0.428 -0.427 12.17730 12.13967-11.53166   0.808
 5.15 2.00 -0.428 -0.429 -0.428 -0.428 -0.426 12.42732 12.38970-11.28158   1.077
 5.15 2.25 -0.428 -0.428 -0.428 -0.427 -0.425 12.67730 12.63970-11.03165   1.436
 5.15 2.50 -0.427 -0.427 -0.427 -0.426 -0.424 12.92727 12.88969-10.78173   1.916
 5.15 2.75 -0.425 -0.425 -0.425 -0.424 -0.422 13.17730 13.13969-10.53165   2.555
 5.15 3.00 -0.423 -0.423 -0.423 -0.423 -0.420 13.42732 13.38970-10.28158   3.407
 5.15 3.20 -0.421 -0.421 -0.421 -0.420 -0.418 13.62728 13.58971-10.08153   4.289
 5.15 3.40 -0.418 -0.419 -0.418 -0.417 -0.414 13.82724 13.78973 -9.88148   5.399
 5.15 3.60 -0.415 -0.415 -0.415 -0.414 -0.410 14.02720 13.98977 -9.68147   6.796
 5.15 3.80 -0.410 -0.410 -0.410 -0.409 -0.405 14.22718 14.18983 -9.48148   8.555
 5.15 4.00 -0.404 -0.404 -0.404 -0.402 -0.398 14.42716 14.38988 -9.28150  10.770
 5.15 4.20 -0.395 -0.396 -0.395 -0.394 -0.389 14.62714 14.58987 -9.08150  13.557
 5.15 4.40 -0.384 -0.385 -0.384 -0.382 -0.377 14.82712 14.78987 -8.88148  17.066
 5.15 4.60 -0.369 -0.370 -0.369 -0.367 -0.362 15.02709 14.98990 -8.68144  21.484
 5.15 4.80 -0.350 -0.351 -0.350 -0.348 -0.341 15.22705 15.18998 -8.48139  27.045
 5.15 5.00 -0.325 -0.325 -0.325 -0.322 -0.315 15.42700 15.39005 -8.28133  34.045
 5.15 5.20 -0.292 -0.293 -0.292 -0.289 -0.282 15.62698 15.59004 -8.08128  42.854
 5.15 5.40 -0.251 -0.251 -0.251 -0.248 -0.239 15.82697 15.79004 -7.88123  53.942
 5.15 5.60 -0.199 -0.200 -0.199 -0.196 -0.188 16.02694 15.99007 -7.68118  67.900
 5.15 5.80 -0.137 -0.138 -0.137 -0.134 -0.125 16.22689 16.19015 -7.48113  85.468
 5.15 6.00 -0.062 -0.063 -0.062 -0.059 -0.050 16.42684 16.39023 -7.28108 107.582
 5.15 6.25  0.048  0.048  0.048  0.051  0.060 16.67674 16.64030 -7.03102 143.424
 5.15 6.50  0.183  0.182  0.183  0.185  0.193 16.92665 16.89037 -6.78094 191.198
 5.15 6.75  0.342  0.342  0.342  0.345  0.352 17.17658 17.14046 -6.53080 254.879
 5.15 7.00  0.524  0.524  0.524  0.526  0.532 17.42651 17.39058 -6.28067 339.753
 5.15 7.25  0.719  0.718  0.719  0.721  0.726 17.67630 17.64077 -6.03054 452.849
 5.15 7.50  0.939  0.938  0.939  0.940  0.944 17.92609 17.89098 -5.78042 603.544
 5.15 7.75  1.168  1.168  1.168  1.169  1.173 18.17589 18.14121 -5.53017 804.321
 5.15 8.00  1.404  1.404  1.404  1.405  1.408 18.42570 18.39146 -5.279841071.803
 5.20-2.00 -0.420 -0.420 -0.420 -0.419 -0.418  8.37731  8.33965-15.33161   0.010
 5.20-1.50 -0.420 -0.420 -0.420 -0.419 -0.418  8.87731  8.83960-14.83180   0.017
 5.20-1.00 -0.420 -0.420 -0.420 -0.419 -0.418  9.37731  9.33965-14.33161   0.030
 5.20-0.50 -0.420 -0.420 -0.420 -0.419 -0.418  9.87731  9.83967-13.83180   0.054
 5.20 0.00 -0.420 -0.420 -0.420 -0.419 -0.418 10.37731 10.33965-13.33161   0.096
 5.20 0.50 -0.420 -0.420 -0.420 -0.419 -0.418 10.87731 10.83967-12.83180   0.171
 5.20 1.00 -0.420 -0.420 -0.420 -0.419 -0.418 11.37731 11.33965-12.33161   0.304
 5.20 1.25 -0.420 -0.420 -0.420 -0.419 -0.418 11.62731 11.58966-12.08171   0.405
 5.20 1.50 -0.419 -0.420 -0.419 -0.419 -0.418 11.87731 11.83967-11.83180   0.540
 5.20 1.75 -0.419 -0.419 -0.419 -0.419 -0.417 12.12731 12.08966-11.58171   0.720
 5.20 2.00 -0.419 -0.419 -0.419 -0.419 -0.417 12.37731 12.33965-11.33161   0.960
 5.20 2.25 -0.419 -0.419 -0.419 -0.418 -0.417 12.62728 12.58965-11.08155   1.280
 5.20 2.50 -0.419 -0.419 -0.419 -0.418 -0.417 12.87726 12.83967-10.83150   1.707
 5.20 2.75 -0.418 -0.418 -0.418 -0.417 -0.416 13.12728 13.08976-10.58151   2.276
 5.20 3.00 -0.417 -0.417 -0.417 -0.417 -0.415 13.37731 13.33985-10.33152   3.036
 5.20 3.20 -0.416 -0.416 -0.416 -0.416 -0.414 13.57726 13.53980-10.13151   3.822
 5.20 3.40 -0.415 -0.415 -0.415 -0.414 -0.412 13.77722 13.73975 -9.93151   4.812
 5.20 3.60 -0.413 -0.413 -0.413 -0.412 -0.410 13.97722 13.93975 -9.73151   6.058
 5.20 3.80 -0.411 -0.411 -0.411 -0.410 -0.408 14.17726 14.13980 -9.53151   7.625
 5.20 4.00 -0.407 -0.408 -0.407 -0.407 -0.404 14.37731 14.33985 -9.33152   9.599
 5.20 4.20 -0.403 -0.403 -0.403 -0.402 -0.399 14.57724 14.53985 -9.13152  12.084
 5.20 4.40 -0.397 -0.397 -0.397 -0.396 -0.393 14.77717 14.73986 -8.93151  15.211
 5.20 4.60 -0.388 -0.389 -0.388 -0.387 -0.384 14.97714 14.93985 -8.73147  19.149
 5.20 4.80 -0.377 -0.377 -0.377 -0.375 -0.371 15.17713 15.13985 -8.53140  24.105
 5.20 5.00 -0.361 -0.361 -0.361 -0.360 -0.355 15.37712 15.33985 -8.33134  30.345
 5.20 5.20 -0.339 -0.339 -0.339 -0.337 -0.332 15.57706 15.53989 -8.13128  38.198
 5.20 5.40 -0.309 -0.309 -0.309 -0.307 -0.301 15.77700 15.73994 -7.93123  48.082
 5.20 5.60 -0.270 -0.270 -0.270 -0.268 -0.261 15.97696 15.94003 -7.73120  60.525
 5.20 5.80 -0.219 -0.220 -0.219 -0.217 -0.210 16.17695 16.14014 -7.53117  76.186
 5.20 6.00 -0.155 -0.156 -0.155 -0.153 -0.146 16.37694 16.34025 -7.33115  95.900
 5.20 6.25 -0.056 -0.057 -0.056 -0.054 -0.046 16.62684 16.59027 -7.08103 127.853
 5.20 6.50  0.066  0.065  0.066  0.068  0.076 16.87674 16.84029 -6.83091 170.447
 5.20 6.75  0.211  0.210  0.211  0.213  0.221 17.12666 17.09035 -6.58084 227.229
 5.20 7.00  0.380  0.380  0.380  0.382  0.389 17.37658 17.34044 -6.33078 302.917
 5.20 7.25  0.560  0.560  0.560  0.562  0.568 17.62640 17.59061 -6.08070 403.765
 5.20 7.50  0.769  0.768  0.769  0.770  0.775 17.87622 17.84080 -5.83062 538.151
 5.20 7.75  0.988  0.988  0.988  0.990  0.994 18.12604 18.09101 -5.58038 717.235
 5.20 8.00  1.216  1.216  1.216  1.217  1.221 18.37585 18.34124 -5.33003 955.865
 5.25-2.00 -0.403 -0.403 -0.403 -0.403 -0.401  8.32736  8.28959-15.38164   0.009
 5.25-1.50 -0.403 -0.403 -0.403 -0.403 -0.401  8.82730  8.78965-14.88173   0.015
 5.25-1.00 -0.403 -0.403 -0.403 -0.403 -0.402  9.32736  9.28959-14.38164   0.027
 5.25-0.50 -0.403 -0.403 -0.403 -0.403 -0.402  9.82730  9.78965-13.88174   0.048
 5.25 0.00 -0.403 -0.403 -0.403 -0.403 -0.402 10.32736 10.28959-13.38164   0.086
 5.25 0.50 -0.403 -0.403 -0.403 -0.403 -0.402 10.82730 10.78965-12.88174   0.152
 5.25 1.00 -0.403 -0.403 -0.403 -0.403 -0.402 11.32736 11.28959-12.38164   0.271
 5.25 1.25 -0.403 -0.403 -0.403 -0.403 -0.402 11.57733 11.53961-12.13169   0.361
 5.25 1.50 -0.403 -0.403 -0.403 -0.403 -0.401 11.82730 11.78965-11.88174   0.481
 5.25 1.75 -0.403 -0.403 -0.403 -0.403 -0.401 12.07733 12.03973-11.63169   0.642
 5.25 2.00 -0.403 -0.403 -0.403 -0.403 -0.401 12.32736 12.28981-11.38164   0.856
 5.25 2.25 -0.403 -0.403 -0.403 -0.403 -0.401 12.57730 12.53973-11.13169   1.141
 5.25 2.50 -0.403 -0.403 -0.403 -0.403 -0.401 12.82724 12.78965-10.88174   1.522
 5.25 2.75 -0.403 -0.403 -0.403 -0.402 -0.401 13.07730 13.03973-10.63163   2.029
 5.25 3.00 -0.402 -0.403 -0.402 -0.402 -0.401 13.32736 13.28981-10.38153   2.706
 5.25 3.20 -0.402 -0.402 -0.402 -0.402 -0.400 13.52731 13.48978-10.18161   3.407
 5.25 3.40 -0.402 -0.402 -0.402 -0.401 -0.400 13.72726 13.68974 -9.98170   4.289
 5.25 3.60 -0.401 -0.401 -0.401 -0.400 -0.399 13.92722 13.88974 -9.78170   5.399
 5.25 3.80 -0.399 -0.400 -0.399 -0.399 -0.397 14.12718 14.08978 -9.58161   6.797
 5.25 4.00 -0.398 -0.398 -0.398 -0.397 -0.396 14.32716 14.28981 -9.38153   8.556
 5.25 4.20 -0.395 -0.396 -0.395 -0.395 -0.393 14.52716 14.48980 -9.18147  10.771
 5.25 4.40 -0.392 -0.392 -0.392 -0.392 -0.390 14.72717 14.68980 -8.98142  13.558
 5.25 4.60 -0.388 -0.388 -0.388 -0.387 -0.385 14.92718 14.88979 -8.78141  17.068
 5.25 4.80 -0.381 -0.381 -0.381 -0.380 -0.378 15.12717 15.08980 -8.58142  21.486
 5.25 5.00 -0.372 -0.372 -0.372 -0.371 -0.369 15.32715 15.28981 -8.38143  27.048
 5.25 5.20 -0.359 -0.359 -0.359 -0.358 -0.355 15.52711 15.48986 -8.18143  34.047
 5.25 5.40 -0.340 -0.341 -0.340 -0.339 -0.336 15.72707 15.68991 -7.98142  42.858
 5.25 5.60 -0.315 -0.315 -0.315 -0.314 -0.310 15.92703 15.88995 -7.78137  53.949
 5.25 5.80 -0.281 -0.281 -0.281 -0.279 -0.275 16.12699 16.08999 -7.58129  67.910
 5.25 6.00 -0.235 -0.236 -0.235 -0.234 -0.229 16.32695 16.29004 -7.38122  85.484
 5.25 6.25 -0.159 -0.159 -0.159 -0.157 -0.152 16.57687 16.54011 -7.13115 113.969
 5.25 6.50 -0.058 -0.059 -0.058 -0.056 -0.051 16.82679 16.79021 -6.88107 151.943
 5.25 6.75  0.068  0.068  0.068  0.070  0.076 17.07677 17.04035 -6.63099 202.568
 5.25 7.00  0.223  0.222  0.223  0.225  0.231 17.32675 17.29048 -6.38091 270.052
 5.25 7.25  0.398  0.397  0.398  0.399  0.405 17.57654 17.54059 -6.13083 359.974
 5.25 7.50  0.590  0.589  0.590  0.591  0.597 17.82633 17.79071 -5.88074 479.813
 5.25 7.75  0.800  0.799  0.800  0.801  0.806 18.07621 18.04090 -5.63055 639.529
 5.25 8.00  1.020  1.020  1.020  1.022  1.025 18.32613 18.29115 -5.38028 852.376
 5.30-2.00 -0.380 -0.380 -0.380 -0.380 -0.379  8.27738  8.23955-15.43168   0.008
 5.30-1.50 -0.380 -0.380 -0.380 -0.380 -0.379  8.77735  8.73965-14.93181   0.014
 5.30-1.00 -0.380 -0.380 -0.380 -0.380 -0.379  9.27738  9.23955-14.43168   0.024
 5.30-0.50 -0.380 -0.380 -0.380 -0.380 -0.379  9.77728  9.73965-13.93182   0.043
 5.30 0.00 -0.380 -0.380 -0.380 -0.380 -0.379 10.27738 10.23980-13.43168   0.076
 5.30 0.50 -0.380 -0.380 -0.380 -0.380 -0.379 10.77728 10.73965-12.93181   0.136
 5.30 1.00 -0.380 -0.380 -0.380 -0.380 -0.379 11.27738 11.23980-12.43168   0.241
 5.30 1.25 -0.380 -0.380 -0.380 -0.380 -0.379 11.52733 11.48973-12.18175   0.322
 5.30 1.50 -0.380 -0.380 -0.380 -0.380 -0.379 11.77728 11.73965-11.93182   0.429
 5.30 1.75 -0.380 -0.380 -0.380 -0.380 -0.379 12.02733 11.98973-11.68169   0.572
 5.30 2.00 -0.380 -0.380 -0.380 -0.380 -0.379 12.27738 12.23980-11.43156   0.763
 5.30 2.25 -0.380 -0.380 -0.380 -0.380 -0.379 12.52733 12.48973-11.18169   1.017
 5.30 2.50 -0.380 -0.380 -0.380 -0.380 -0.378 12.77728 12.73965-10.93181   1.356
 5.30 2.75 -0.380 -0.380 -0.380 -0.380 -0.378 13.02733 12.98973-10.68169   1.808
 5.30 3.00 -0.380 -0.380 -0.380 -0.380 -0.378 13.27738 13.23980-10.43156   2.412
 5.30 3.20 -0.380 -0.380 -0.380 -0.379 -0.378 13.47731 13.43977-10.23149   3.037
 5.30 3.40 -0.380 -0.380 -0.380 -0.379 -0.378 13.67724 13.63974-10.03145   3.823
 5.30 3.60 -0.379 -0.379 -0.379 -0.379 -0.377 13.87719 13.83974 -9.83147   4.812
 5.30 3.80 -0.379 -0.379 -0.379 -0.378 -0.377 14.07716 14.03977 -9.63152   6.058
 5.30 4.00 -0.378 -0.378 -0.378 -0.378 -0.376 14.27715 14.23980 -9.43156   7.626
 5.30 4.20 -0.377 -0.377 -0.377 -0.376 -0.375 14.47717 14.43981 -9.23152   9.600
 5.30 4.40 -0.375 -0.375 -0.375 -0.374 -0.373 14.67720 14.63981 -9.03147  12.085
 5.30 4.60 -0.372 -0.372 -0.372 -0.372 -0.370 14.87720 14.83981 -8.83144  15.213
 5.30 4.80 -0.368 -0.368 -0.368 -0.368 -0.366 15.07718 15.03980 -8.63144  19.151
 5.30 5.00 -0.363 -0.363 -0.363 -0.363 -0.361 15.27715 15.23980 -8.43145  24.108
 5.30 5.20 -0.355 -0.355 -0.355 -0.354 -0.353 15.47712 15.43983 -8.23145  30.347
 5.30 5.40 -0.344 -0.344 -0.344 -0.343 -0.341 15.67709 15.63986 -8.03145  38.201
 5.30 5.60 -0.328 -0.328 -0.328 -0.327 -0.325 15.87704 15.83992 -7.83140  48.087
 5.30 5.80 -0.306 -0.306 -0.306 -0.305 -0.303 16.07698 16.03999 -7.63130  60.533
 5.30 6.00 -0.276 -0.277 -0.276 -0.275 -0.273 16.27692 16.24005 -7.43121  76.199
 5.30 6.25 -0.224 -0.224 -0.224 -0.223 -0.219 16.52688 16.49009 -7.18113 101.592
 5.30 6.50 -0.151 -0.151 -0.151 -0.150 -0.146 16.77685 16.74013 -6.93107 135.445
 5.30 6.75 -0.052 -0.053 -0.052 -0.051 -0.047 17.02678 16.99021 -6.68103 180.578
 5.30 7.00  0.072  0.071  0.072  0.073  0.078 17.27669 17.24030 -6.43098 240.745
 5.30 7.25  0.226  0.225  0.226  0.227  0.232 17.52659 17.49040 -6.18085 320.930
 5.30 7.50  0.397  0.397  0.397  0.399  0.403 17.77648 17.74052 -5.93070 427.798
 5.30 7.75  0.595  0.595  0.595  0.597  0.601 18.02636 17.99075 -5.68055 570.227
 5.30 8.00  0.808  0.808  0.808  0.809  0.813 18.27623 18.24105 -5.43039 760.038
