 ROSSELAND MASS ABSORPTION COEFFICIENTS [-3.0] 
 logT logP  0km/s  1km/s  2km/s  4km/s  8km/s  log Ne   log Na  log rho IPloCM-1
 3.32-2.00 -6.401 -6.396 -6.387 -6.370 -6.347  2.87703 10.54033-13.13395   0.001
 3.32-1.50 -6.451 -6.446 -6.438 -6.422 -6.400  3.21192 11.04139-12.63302   0.001
 3.32-1.00 -6.479 -6.474 -6.466 -6.451 -6.430  3.57113 11.54419-12.13018   0.001
 3.32-0.50 -6.475 -6.470 -6.462 -6.446 -6.424  3.97557 12.05231-11.62197   0.001
 3.32 0.00 -6.439 -6.434 -6.425 -6.408 -6.384  4.43185 12.57380-11.10062   0.001
 3.32 0.50 -6.384 -6.379 -6.369 -6.350 -6.324  4.92044 13.11494-10.55956   0.002
 3.32 1.00 -6.327 -6.322 -6.312 -6.293 -6.266  5.40312 13.66829-10.00603   0.003
 3.32 1.25 -6.299 -6.294 -6.285 -6.266 -6.240  5.63289 13.94330 -9.73096   0.003
 3.32 1.50 -6.271 -6.267 -6.258 -6.241 -6.217  5.85576 14.21643 -9.45780   0.004
 3.32 1.75 -6.243 -6.239 -6.232 -6.216 -6.194  6.07104 14.48542 -9.18895   0.005
 3.32 2.00 -6.216 -6.212 -6.206 -6.192 -6.172  6.28285 14.75113 -8.92336   0.007
 3.32 2.25 -6.188 -6.185 -6.178 -6.166 -6.149  6.49165 15.01336 -8.66105   0.009
 3.32 2.50 -6.159 -6.156 -6.151 -6.140 -6.125  6.70044 15.27300 -8.40132   0.012
 3.32 2.75 -6.129 -6.127 -6.122 -6.113 -6.099  6.90985 15.53044 -8.14382   0.015
 3.32 3.00 -6.098 -6.096 -6.092 -6.084 -6.072  7.11926 15.78618 -7.88807   0.019
 3.32 3.20 -6.072 -6.071 -6.067 -6.060 -6.049  7.28399 15.98972 -7.68460   0.023
 3.32 3.40 -6.046 -6.044 -6.041 -6.035 -6.025  7.44577 16.19260 -7.48177   0.027
 3.32 3.60 -6.019 -6.018 -6.015 -6.009 -6.001  7.60268 16.39489 -7.27951   0.033
 3.32 3.80 -5.991 -5.990 -5.988 -5.983 -5.975  7.75272 16.59677 -7.07764   0.039
 3.32 4.00 -5.961 -5.960 -5.958 -5.954 -5.947  7.89719 16.79824 -6.87615   0.046
 3.32 4.20 -5.932 -5.931 -5.930 -5.925 -5.918  8.03487 16.99933 -6.67499   0.054
 3.32 4.40 -5.901 -5.900 -5.898 -5.894 -5.887  8.16848 17.20022 -6.47405   0.063
 3.32 4.60 -5.867 -5.866 -5.864 -5.860 -5.852  8.29755 17.40096 -6.27331   0.073
 3.32 4.80 -5.829 -5.828 -5.826 -5.822 -5.814  8.42442 17.60159 -6.07271   0.085
 3.32 5.00 -5.786 -5.786 -5.784 -5.779 -5.771  8.55035 17.80209 -5.87225   0.098
 3.32 5.20 -5.739 -5.738 -5.736 -5.731 -5.723  8.67561 18.00238 -5.67192   0.113
 3.32 5.40 -5.685 -5.684 -5.682 -5.677 -5.669  8.80087 18.20264 -5.47163   0.131
 3.32 5.60 -5.624 -5.623 -5.621 -5.616 -5.608  8.92713 18.40289 -5.27138   0.152
 3.32 5.80 -5.554 -5.553 -5.551 -5.547 -5.539  9.05530 18.60312 -5.07115   0.176
 3.32 6.00 -5.473 -5.472 -5.470 -5.466 -5.458  9.18469 18.80332 -4.87096   0.204
 3.32 6.25 -5.347 -5.347 -5.345 -5.341 -5.335  9.34889 19.05350 -4.62087   0.246
 3.32 6.50 -5.183 -5.183 -5.181 -5.178 -5.172  9.51309 19.30363 -4.37080   0.297
 3.32 6.75 -4.959 -4.959 -4.957 -4.955 -4.950  9.67525 19.55368 -4.12071   0.358
 3.32 7.00 -4.792 -4.792 -4.791 -4.789 -4.785  9.83499 19.80373 -3.87063   0.430
 3.32 7.25 -4.687 -4.686 -4.686 -4.684 -4.681  9.98887 20.05379 -3.62060   0.514
 3.32 7.50 -4.581 -4.580 -4.580 -4.578 -4.575 10.13799 20.30384 -3.37059   0.610
 3.32 7.75 -4.473 -4.473 -4.472 -4.471 -4.468 10.28228 20.55387 -3.12060   0.720
 3.32 8.00 -4.363 -4.363 -4.362 -4.361 -4.359 10.42177 20.80387 -2.87063   0.846
 3.34-2.00 -6.241 -6.235 -6.225 -6.205 -6.179  3.14922 10.51996-13.15434   0.001
 3.34-1.50 -6.292 -6.287 -6.277 -6.258 -6.232  3.49052 11.02036-12.65404   0.001
 3.34-1.00 -6.334 -6.329 -6.319 -6.301 -6.276  3.82132 11.52114-12.15317   0.001
 3.34-0.50 -6.351 -6.346 -6.337 -6.318 -6.293  4.15987 12.02366-11.65053   0.001
 3.34 0.00 -6.332 -6.326 -6.316 -6.297 -6.270  4.53020 12.53199-11.14237   0.001
 3.34 0.50 -6.274 -6.269 -6.258 -6.237 -6.208  4.95347 13.05269-10.62160   0.002
 3.34 1.00 -6.199 -6.193 -6.183 -6.162 -6.134  5.42797 13.59329-10.08103   0.003
 3.34 1.25 -6.162 -6.157 -6.147 -6.128 -6.101  5.67108 13.87002 -9.80435   0.004
 3.34 1.50 -6.130 -6.125 -6.117 -6.099 -6.074  5.91418 14.14675 -9.52768   0.005
 3.34 1.75 -6.101 -6.097 -6.089 -6.073 -6.051  6.14773 14.42190 -9.25256   0.006
 3.34 2.00 -6.075 -6.072 -6.065 -6.051 -6.031  6.37438 14.69522 -8.97922   0.008
 3.34 2.25 -6.051 -6.048 -6.042 -6.030 -6.013  6.59240 14.96434 -8.71007   0.010
 3.34 2.50 -6.029 -6.026 -6.020 -6.010 -5.994  6.80516 15.23019 -8.44418   0.013
 3.34 2.75 -6.005 -6.003 -5.998 -5.988 -5.974  7.01289 15.49267 -8.18173   0.017
 3.34 3.00 -5.980 -5.978 -5.974 -5.965 -5.953  7.21958 15.75251 -7.92191   0.021
 3.34 3.20 -5.958 -5.956 -5.952 -5.945 -5.933  7.38483 15.95863 -7.71578   0.025
 3.34 3.40 -5.934 -5.932 -5.929 -5.922 -5.911  7.54952 16.16366 -7.51073   0.030
 3.34 3.60 -5.907 -5.906 -5.903 -5.897 -5.887  7.71355 16.36765 -7.30666   0.036
 3.34 3.80 -5.878 -5.877 -5.875 -5.869 -5.860  7.87600 16.57094 -7.10331   0.044
 3.34 4.00 -5.846 -5.845 -5.843 -5.839 -5.831  8.03663 16.77357 -6.90066   0.053
 3.34 4.20 -5.817 -5.816 -5.814 -5.809 -5.801  8.19100 16.97567 -6.69870   0.063
 3.34 4.40 -5.786 -5.785 -5.783 -5.778 -5.770  8.34035 17.17737 -6.49709   0.075
 3.34 4.60 -5.753 -5.752 -5.750 -5.745 -5.737  8.48365 17.37867 -6.29579   0.089
 3.34 4.80 -5.720 -5.719 -5.717 -5.712 -5.703  8.62134 17.57972 -6.09469   0.104
 3.34 5.00 -5.685 -5.684 -5.682 -5.677 -5.668  8.75458 17.78053 -5.89381   0.121
 3.34 5.20 -5.648 -5.647 -5.645 -5.640 -5.632  8.88328 17.98119 -5.69319   0.141
 3.34 5.40 -5.610 -5.609 -5.607 -5.602 -5.594  9.01020 18.18172 -5.49267   0.163
 3.34 5.60 -5.570 -5.569 -5.567 -5.562 -5.553  9.13519 18.38215 -5.29220   0.188
 3.34 5.80 -5.527 -5.526 -5.524 -5.519 -5.511  9.25959 18.58250 -5.09178   0.217
 3.34 6.00 -5.482 -5.481 -5.479 -5.475 -5.467  9.38400 18.78276 -4.89144   0.250
 3.34 6.25 -5.422 -5.421 -5.419 -5.414 -5.407  9.54121 19.03292 -4.64129   0.300
 3.34 6.50 -5.356 -5.355 -5.353 -5.349 -5.342  9.69975 19.28308 -4.39115   0.360
 3.34 6.75 -5.284 -5.284 -5.282 -5.278 -5.272  9.86068 19.53328 -4.14096   0.433
 3.34 7.00 -5.208 -5.207 -5.206 -5.202 -5.196 10.02160 19.78348 -3.89076   0.521
 3.34 7.25 -5.127 -5.126 -5.125 -5.122 -5.116 10.18070 20.03350 -3.64073   0.626
 3.34 7.50 -5.042 -5.042 -5.041 -5.038 -5.033 10.33766 20.28353 -3.39073   0.750
 3.34 7.75 -4.957 -4.956 -4.955 -4.953 -4.949 10.48960 20.53359 -3.14073   0.894
 3.34 8.00 -4.871 -4.870 -4.869 -4.867 -4.864 10.63749 20.78369 -2.89076   1.060
 3.36-2.00 -6.107 -6.101 -6.090 -6.069 -6.041  3.34557 10.49996-13.17444   0.001
 3.36-1.50 -6.144 -6.138 -6.127 -6.106 -6.078  3.72965 10.99996-12.67448   0.001
 3.36-1.00 -6.182 -6.176 -6.165 -6.143 -6.115  4.08529 11.50024-12.17406   0.001
 3.36-0.50 -6.205 -6.199 -6.188 -6.166 -6.138  4.42128 12.00130-11.67325   0.001
 3.36 0.00 -6.198 -6.192 -6.180 -6.158 -6.128  4.75243 12.50406-11.17031   0.001
 3.36 0.50 -6.154 -6.148 -6.136 -6.113 -6.082  5.10037 13.01242-10.66214   0.002
 3.36 1.00 -6.084 -6.078 -6.067 -6.046 -6.016  5.49220 13.53339-10.14092   0.003
 3.36 1.25 -6.045 -6.040 -6.030 -6.011 -5.983  5.71250 13.80201 -9.87237   0.004
 3.36 1.50 -6.010 -6.005 -5.996 -5.979 -5.954  5.94280 14.07445 -9.59998   0.005
 3.36 1.75 -5.978 -5.973 -5.966 -5.950 -5.928  6.18327 14.35116 -9.32323   0.006
 3.36 2.00 -5.950 -5.946 -5.939 -5.926 -5.906  6.42374 14.62788 -9.04648   0.008
 3.36 2.25 -5.925 -5.921 -5.915 -5.903 -5.886  6.65839 14.90292 -8.77142   0.011
 3.36 2.50 -5.901 -5.898 -5.892 -5.881 -5.866  6.88762 15.17609 -8.49826   0.014
 3.36 2.75 -5.877 -5.874 -5.869 -5.859 -5.844  7.10763 15.44513 -8.22917   0.018
 3.36 3.00 -5.852 -5.849 -5.844 -5.835 -5.822  7.32160 15.71088 -7.96337   0.023
 3.36 3.20 -5.829 -5.827 -5.823 -5.814 -5.802  7.48835 15.92086 -7.75341   0.028
 3.36 3.40 -5.805 -5.803 -5.800 -5.792 -5.780  7.65339 16.12919 -7.54508   0.034
 3.36 3.60 -5.779 -5.777 -5.774 -5.767 -5.756  7.81707 16.33597 -7.33829   0.041
 3.36 3.80 -5.750 -5.748 -5.746 -5.739 -5.729  7.97990 16.54158 -7.13265   0.049
 3.36 4.00 -5.717 -5.716 -5.714 -5.708 -5.700  8.14176 16.74609 -6.92812   0.059
 3.36 4.20 -5.686 -5.685 -5.683 -5.677 -5.668  8.30327 16.94956 -6.72467   0.071
 3.36 4.40 -5.652 -5.651 -5.649 -5.643 -5.634  8.46340 17.15240 -6.52185   0.085
 3.36 4.60 -5.616 -5.615 -5.612 -5.607 -5.598  8.62075 17.35467 -6.31957   0.102
 3.36 4.80 -5.578 -5.577 -5.575 -5.570 -5.561  8.77305 17.55657 -6.11766   0.121
 3.36 5.00 -5.539 -5.538 -5.536 -5.531 -5.522  8.92096 17.75808 -5.91614   0.144
 3.36 5.20 -5.499 -5.498 -5.496 -5.491 -5.482  9.06210 17.95923 -5.71504   0.169
 3.36 5.40 -5.458 -5.457 -5.455 -5.450 -5.442  9.19870 18.16016 -5.51413   0.197
 3.36 5.60 -5.416 -5.415 -5.413 -5.408 -5.400  9.33037 18.36091 -5.31337   0.230
 3.36 5.80 -5.372 -5.371 -5.369 -5.364 -5.356  9.45883 18.56153 -5.11272   0.266
 3.36 6.00 -5.325 -5.324 -5.322 -5.318 -5.310  9.58501 18.76200 -4.91222   0.308
 3.36 6.25 -5.263 -5.262 -5.261 -5.257 -5.249  9.73986 19.01237 -4.66189   0.368
 3.36 6.50 -5.196 -5.195 -5.194 -5.190 -5.183  9.89470 19.26269 -4.41162   0.440
 3.36 6.75 -5.123 -5.122 -5.121 -5.117 -5.111 10.05007 19.51300 -4.16136   0.526
 3.36 7.00 -5.044 -5.043 -5.042 -5.038 -5.033 10.20602 19.76328 -3.91116   0.630
 3.36 7.25 -4.958 -4.957 -4.956 -4.953 -4.949 10.36371 20.01334 -3.66104   0.755
 3.36 7.50 -4.867 -4.867 -4.866 -4.863 -4.859 10.52140 20.26340 -3.41094   0.906
 3.36 7.75 -4.774 -4.773 -4.772 -4.770 -4.766 10.67715 20.51351 -3.16086   1.084
 3.36 8.00 -4.679 -4.678 -4.678 -4.676 -4.672 10.83161 20.76365 -2.91080   1.295
 3.38-2.00 -6.006 -6.000 -5.989 -5.967 -5.938  3.45773 10.47986-13.19450   0.001
 3.38-1.50 -6.027 -6.021 -6.009 -5.987 -5.958  3.88666 10.97987-12.69443   0.001
 3.38-1.00 -6.050 -6.043 -6.032 -6.009 -5.979  4.28937 11.48001-12.19436   0.001
 3.38-0.50 -6.065 -6.058 -6.046 -6.023 -5.992  4.66181 11.98028-11.69400   0.001
 3.38 0.00 -6.058 -6.052 -6.039 -6.015 -5.983  5.00817 12.48130-11.19308   0.002
 3.38 0.50 -6.021 -6.015 -6.002 -5.978 -5.946  5.34025 12.98430-10.69016   0.002
 3.38 1.00 -5.961 -5.955 -5.944 -5.923 -5.893  5.67715 13.49318-10.18125   0.003
 3.38 1.25 -5.927 -5.922 -5.912 -5.892 -5.865  5.85624 13.75227 -9.92211   0.004
 3.38 1.50 -5.894 -5.890 -5.881 -5.863 -5.839  6.04532 14.01536 -9.65896   0.005
 3.38 1.75 -5.863 -5.859 -5.851 -5.836 -5.814  6.25107 14.28468 -9.38965   0.006
 3.38 2.00 -5.834 -5.830 -5.823 -5.810 -5.791  6.46894 14.55763 -9.11674   0.008
 3.38 2.25 -5.806 -5.803 -5.796 -5.784 -5.767  6.70227 14.83445 -8.83997   0.011
 3.38 2.50 -5.778 -5.775 -5.769 -5.758 -5.741  6.93561 15.11126 -8.56320   0.014
 3.38 2.75 -5.749 -5.746 -5.741 -5.730 -5.714  7.16771 15.38608 -8.28835   0.018
 3.38 3.00 -5.718 -5.716 -5.711 -5.700 -5.686  7.39794 15.65877 -8.01556   0.024
 3.38 3.20 -5.692 -5.690 -5.685 -5.676 -5.662  7.57502 15.87386 -7.80052   0.030
 3.38 3.40 -5.665 -5.663 -5.659 -5.650 -5.637  7.74824 16.08685 -7.58757   0.036
 3.38 3.60 -5.636 -5.634 -5.630 -5.622 -5.610  7.91729 16.29765 -7.37682   0.044
 3.38 3.80 -5.605 -5.603 -5.600 -5.593 -5.582  8.08332 16.50660 -7.16790   0.054
 3.38 4.00 -5.571 -5.570 -5.568 -5.562 -5.552  8.24699 16.71391 -6.96059   0.065
 3.38 4.20 -5.540 -5.539 -5.537 -5.531 -5.522  8.40894 16.91977 -6.75462   0.078
 3.38 4.40 -5.507 -5.506 -5.503 -5.498 -5.488  8.56964 17.12458 -6.54974   0.094
 3.38 4.60 -5.471 -5.470 -5.467 -5.462 -5.453  8.72958 17.32842 -6.34594   0.113
 3.38 4.80 -5.432 -5.431 -5.429 -5.423 -5.414  8.88857 17.53157 -6.14289   0.135
 3.38 5.00 -5.390 -5.389 -5.387 -5.382 -5.373  9.04610 17.73408 -5.94044   0.162
 3.38 5.20 -5.347 -5.346 -5.343 -5.338 -5.330  9.19973 17.93605 -5.73840   0.193
 3.38 5.40 -5.300 -5.299 -5.297 -5.293 -5.284  9.34949 18.13764 -5.53673   0.230
 3.38 5.60 -5.252 -5.251 -5.249 -5.245 -5.237  9.49430 18.33888 -5.33547   0.271
 3.38 5.80 -5.202 -5.201 -5.200 -5.195 -5.188  9.63369 18.53988 -5.13447   0.319
 3.38 6.00 -5.150 -5.149 -5.148 -5.143 -5.136  9.76856 18.74068 -4.93367   0.372
 3.38 6.25 -5.082 -5.081 -5.079 -5.076 -5.069  9.93052 18.99146 -4.68288   0.448
 3.38 6.50 -5.009 -5.009 -5.007 -5.004 -4.998 10.08849 19.24205 -4.43227   0.538
 3.38 6.75 -4.932 -4.931 -4.930 -4.927 -4.921 10.24292 19.49247 -4.18179   0.642
 3.38 7.00 -4.849 -4.849 -4.847 -4.844 -4.840 10.39690 19.74280 -3.93144   0.767
 3.38 7.25 -4.761 -4.761 -4.760 -4.757 -4.753 10.55061 19.99308 -3.68127   0.916
 3.38 7.50 -4.669 -4.668 -4.667 -4.665 -4.661 10.70432 20.24329 -3.43109   1.093
 3.38 7.75 -4.572 -4.572 -4.571 -4.569 -4.566 10.85876 20.49343 -3.18090   1.306
 3.38 8.00 -4.474 -4.474 -4.473 -4.471 -4.468 11.01368 20.74351 -2.93070   1.560
 3.40-2.00 -5.932 -5.926 -5.914 -5.891 -5.862  3.50393 10.45984-13.21446   0.001
 3.40-1.50 -5.939 -5.932 -5.920 -5.897 -5.867  3.97025 10.95985-12.71444   0.001
 3.40-1.00 -5.947 -5.941 -5.929 -5.905 -5.875  4.41296 11.46000-12.21446   0.001
 3.40-0.50 -5.950 -5.943 -5.931 -5.907 -5.875  4.83091 11.96000-11.71444   0.001
 3.40 0.00 -5.935 -5.929 -5.916 -5.892 -5.859  5.21985 12.46045-11.21396   0.002
 3.40 0.50 -5.897 -5.891 -5.879 -5.855 -5.823  5.57933 12.96147-10.71287   0.003
 3.40 1.00 -5.841 -5.835 -5.824 -5.803 -5.775  5.91777 13.46494-10.20950   0.004
 3.40 1.25 -5.808 -5.803 -5.793 -5.775 -5.749  6.08470 13.71868 -9.95577   0.005
 3.40 1.50 -5.776 -5.772 -5.763 -5.746 -5.723  6.25164 13.97460 -9.69984   0.006
 3.40 1.75 -5.744 -5.740 -5.732 -5.717 -5.697  6.42500 14.23463 -9.43976   0.008
 3.40 2.00 -5.714 -5.710 -5.703 -5.689 -5.670  6.60531 14.49886 -9.17548   0.010
 3.40 2.25 -5.684 -5.680 -5.674 -5.661 -5.643  6.79963 14.76929 -8.90515   0.012
 3.40 2.50 -5.654 -5.650 -5.644 -5.632 -5.615  7.00561 15.04297 -8.63153   0.015
 3.40 2.75 -5.621 -5.618 -5.612 -5.601 -5.585  7.22742 15.31984 -8.35461   0.019
 3.40 3.00 -5.586 -5.583 -5.578 -5.567 -5.551  7.45255 15.59671 -8.07769   0.025
 3.40 3.20 -5.555 -5.552 -5.547 -5.537 -5.522  7.63443 15.81640 -7.85798   0.031
 3.40 3.40 -5.522 -5.520 -5.516 -5.506 -5.492  7.81631 16.03453 -7.63984   0.039
 3.40 3.60 -5.488 -5.486 -5.483 -5.474 -5.461  7.99573 16.25051 -7.42388   0.047
 3.40 3.80 -5.453 -5.451 -5.448 -5.441 -5.429  8.17017 16.46395 -7.21047   0.058
 3.40 4.00 -5.416 -5.415 -5.412 -5.406 -5.396  8.34124 16.67532 -6.99913   0.070
 3.40 4.20 -5.383 -5.381 -5.379 -5.373 -5.363  8.50824 16.88462 -6.78988   0.085
 3.40 4.40 -5.347 -5.346 -5.344 -5.338 -5.329  8.67265 17.09235 -6.58215   0.103
 3.40 4.60 -5.310 -5.309 -5.307 -5.302 -5.293  8.83461 17.29854 -6.37588   0.124
 3.40 4.80 -5.272 -5.271 -5.268 -5.263 -5.254  8.99486 17.50360 -6.17071   0.149
 3.40 5.00 -5.229 -5.228 -5.226 -5.221 -5.213  9.15351 17.70766 -5.96658   0.179
 3.40 5.20 -5.184 -5.183 -5.181 -5.176 -5.168  9.31145 17.91086 -5.76342   0.215
 3.40 5.40 -5.135 -5.134 -5.132 -5.127 -5.119  9.46763 18.11349 -5.56085   0.257
 3.40 5.60 -5.081 -5.081 -5.079 -5.074 -5.067  9.62164 18.31558 -5.35885   0.307
 3.40 5.80 -5.024 -5.024 -5.022 -5.018 -5.011  9.77216 18.51730 -5.15719   0.365
 3.40 6.00 -4.964 -4.964 -4.962 -4.958 -4.952  9.91918 18.71867 -4.95585   0.433
 3.40 6.25 -4.886 -4.885 -4.884 -4.880 -4.874 10.09493 18.96994 -4.70448   0.530
 3.40 6.50 -4.804 -4.803 -4.802 -4.798 -4.793 10.26387 19.22089 -4.45346   0.643
 3.40 6.75 -4.718 -4.718 -4.717 -4.714 -4.709 10.42575 19.47159 -4.20284   0.775
 3.40 7.00 -4.630 -4.630 -4.629 -4.626 -4.622 10.58331 19.72214 -3.95234   0.929
 3.40 7.25 -4.539 -4.539 -4.538 -4.536 -4.532 10.73706 19.97262 -3.70187   1.109
 3.40 7.50 -4.446 -4.445 -4.445 -4.442 -4.439 10.88964 20.22298 -3.45149   1.322
 3.40 7.75 -4.350 -4.350 -4.349 -4.347 -4.344 11.04174 20.47320 -3.20126   1.575
 3.40 8.00 -4.253 -4.253 -4.252 -4.250 -4.248 11.19312 20.72329 -2.95117   1.875
 3.42-2.00 -5.880 -5.874 -5.862 -5.839 -5.809  3.50556 10.43996-13.23441   0.001
 3.42-1.50 -5.875 -5.868 -5.856 -5.833 -5.802  3.99471 10.93992-12.73448   0.001
 3.42-1.00 -5.870 -5.863 -5.851 -5.827 -5.796  4.47188 11.43996-12.23441   0.001
 3.42-0.50 -5.860 -5.854 -5.841 -5.817 -5.785  4.92732 11.93997-11.73448   0.001
 3.42 0.00 -5.837 -5.830 -5.817 -5.793 -5.761  5.35793 12.44012-11.23426   0.002
 3.42 0.50 -5.793 -5.786 -5.774 -5.751 -5.721  5.76155 12.94052-10.73377   0.004
 3.42 1.00 -5.733 -5.727 -5.717 -5.697 -5.670  6.13481 13.44185-10.23247   0.005
 3.42 1.25 -5.698 -5.693 -5.684 -5.666 -5.642  6.31044 13.69333 -9.98102   0.006
 3.42 1.50 -5.663 -5.658 -5.650 -5.634 -5.612  6.48216 13.94576 -9.72862   0.008
 3.42 1.75 -5.626 -5.622 -5.614 -5.599 -5.579  6.65023 14.20019 -9.47420   0.010
 3.42 2.00 -5.589 -5.585 -5.578 -5.564 -5.545  6.81829 14.45713 -9.21724   0.012
 3.42 2.25 -5.552 -5.548 -5.542 -5.529 -5.511  6.98968 14.71841 -8.95598   0.015
 3.42 2.50 -5.516 -5.512 -5.506 -5.493 -5.476  7.16525 14.98403 -8.69037   0.018
 3.42 2.75 -5.479 -5.476 -5.470 -5.458 -5.442  7.35197 15.25601 -8.41834   0.022
 3.42 3.00 -5.442 -5.439 -5.434 -5.423 -5.407  7.54851 15.53058 -8.14375   0.028
 3.42 3.20 -5.410 -5.408 -5.403 -5.392 -5.378  7.71616 15.75204 -7.92235   0.034
 3.42 3.40 -5.376 -5.374 -5.370 -5.360 -5.346  7.88753 15.97349 -7.70094   0.041
 3.42 3.60 -5.339 -5.337 -5.334 -5.325 -5.312  8.06301 16.19399 -7.48047   0.050
 3.42 3.80 -5.300 -5.298 -5.295 -5.288 -5.277  8.23983 16.41218 -7.26225   0.061
 3.42 4.00 -5.259 -5.257 -5.255 -5.249 -5.239  8.41664 16.62859 -7.04581   0.075
 3.42 4.20 -5.220 -5.219 -5.216 -5.211 -5.201  8.59005 16.84226 -6.83213   0.092
 3.42 4.40 -5.179 -5.178 -5.176 -5.171 -5.162  8.76103 17.05390 -6.62048   0.112
 3.42 4.60 -5.138 -5.137 -5.135 -5.130 -5.121  8.92900 17.26347 -6.41090   0.135
 3.42 4.80 -5.095 -5.094 -5.092 -5.087 -5.079  9.09389 17.47137 -6.20297   0.164
 3.42 5.00 -5.049 -5.048 -5.046 -5.042 -5.034  9.25624 17.67779 -5.99654   0.197
 3.42 5.20 -5.001 -5.000 -4.999 -4.994 -4.987  9.41624 17.88294 -5.79143   0.237
 3.42 5.40 -4.950 -4.949 -4.947 -4.943 -4.936  9.57442 18.08717 -5.58722   0.284
 3.42 5.60 -4.894 -4.893 -4.892 -4.888 -4.881  9.73121 18.29051 -5.38383   0.340
 3.42 5.80 -4.834 -4.833 -4.832 -4.828 -4.821  9.88650 18.49324 -5.18102   0.407
 3.42 6.00 -4.769 -4.768 -4.767 -4.763 -4.757 10.03981 18.69539 -4.97881   0.486
 3.42 6.25 -4.682 -4.682 -4.680 -4.677 -4.672 10.22728 18.94738 -4.72686   0.603
 3.42 6.50 -4.591 -4.590 -4.589 -4.586 -4.581 10.40943 19.19893 -4.47534   0.743
 3.42 6.75 -4.496 -4.496 -4.495 -4.492 -4.488 10.58377 19.45024 -4.22405   0.908
 3.42 7.00 -4.401 -4.400 -4.399 -4.397 -4.393 10.75159 19.70122 -3.97306   1.102
 3.42 7.25 -4.305 -4.304 -4.303 -4.301 -4.298 10.91251 19.95176 -3.72243   1.326
 3.42 7.50 -4.209 -4.208 -4.207 -4.205 -4.202 11.06893 20.20222 -3.47198   1.588
 3.42 7.75 -4.113 -4.112 -4.112 -4.110 -4.107 11.22231 20.45265 -3.22164   1.895
 3.42 8.00 -4.018 -4.017 -4.017 -4.015 -4.012 11.37218 20.70303 -2.97143   2.252
 3.44-2.00 -5.828 -5.823 -5.812 -5.792 -5.764  3.53058 10.41996-13.25446   0.001
 3.44-1.50 -5.826 -5.820 -5.808 -5.786 -5.756  3.99991 10.91991-12.75449   0.001
 3.44-1.00 -5.814 -5.808 -5.796 -5.772 -5.741  4.48430 11.41996-12.25438   0.001
 3.44-0.50 -5.794 -5.787 -5.774 -5.750 -5.718  4.96647 11.91991-11.75449   0.001
 3.44 0.00 -5.760 -5.753 -5.740 -5.716 -5.684  5.43265 12.41996-11.25438   0.002
 3.44 0.50 -5.709 -5.702 -5.691 -5.668 -5.638  5.87460 12.92012-10.75424   0.004
 3.44 1.00 -5.641 -5.636 -5.626 -5.607 -5.581  6.29048 13.42062-10.25368   0.006
 3.44 1.25 -5.602 -5.597 -5.588 -5.571 -5.548  6.48723 13.67120-10.00305   0.008
 3.44 1.50 -5.561 -5.556 -5.548 -5.532 -5.510  6.67679 13.92221 -9.75203   0.010
 3.44 1.75 -5.517 -5.513 -5.505 -5.490 -5.470  6.85852 14.17408 -9.50021   0.012
 3.44 2.00 -5.471 -5.467 -5.460 -5.445 -5.426  7.03503 14.42716 -9.24726   0.015
 3.44 2.25 -5.424 -5.420 -5.413 -5.399 -5.381  7.20580 14.68240 -8.99206   0.018
 3.44 2.50 -5.376 -5.373 -5.366 -5.353 -5.336  7.37658 14.94047 -8.73400   0.022
 3.44 2.75 -5.329 -5.326 -5.320 -5.308 -5.291  7.54854 15.20356 -8.47088   0.027
 3.44 3.00 -5.283 -5.280 -5.275 -5.264 -5.248  7.72230 15.47114 -8.20329   0.033
 3.44 3.20 -5.246 -5.244 -5.239 -5.229 -5.215  7.86744 15.69014 -7.98443   0.039
 3.44 3.40 -5.210 -5.208 -5.203 -5.194 -5.181  8.01737 15.91006 -7.76455   0.047
 3.44 3.60 -5.172 -5.170 -5.167 -5.159 -5.147  8.17348 16.13089 -7.54365   0.056
 3.44 3.80 -5.132 -5.131 -5.128 -5.121 -5.111  8.33520 16.35194 -7.32249   0.067
 3.44 4.00 -5.090 -5.089 -5.086 -5.081 -5.072  8.50092 16.57299 -7.10133   0.081
 3.44 4.20 -5.048 -5.047 -5.044 -5.039 -5.031  8.67142 16.79122 -6.88309   0.098
 3.44 4.40 -5.002 -5.001 -4.999 -4.995 -4.987  8.84192 17.00752 -6.66681   0.120
 3.44 4.60 -4.955 -4.954 -4.952 -4.948 -4.940  9.01195 17.22155 -6.45282   0.145
 3.44 4.80 -4.905 -4.905 -4.903 -4.899 -4.891  9.18057 17.43328 -6.24110   0.177
 3.44 5.00 -4.854 -4.853 -4.851 -4.847 -4.840  9.34792 17.64306 -6.03133   0.214
 3.44 5.20 -4.800 -4.799 -4.798 -4.794 -4.787  9.51217 17.85092 -5.82343   0.259
 3.44 5.40 -4.744 -4.743 -4.742 -4.738 -4.732  9.67422 18.05742 -5.61689   0.312
 3.44 5.60 -4.685 -4.684 -4.683 -4.679 -4.673  9.83405 18.26266 -5.41168   0.375
 3.44 5.80 -4.622 -4.622 -4.620 -4.617 -4.611  9.99185 18.46699 -5.20740   0.449
 3.44 6.00 -4.556 -4.556 -4.554 -4.551 -4.546 10.14768 18.67043 -5.00397   0.537
 3.44 6.25 -4.468 -4.467 -4.466 -4.463 -4.458 10.34034 18.92364 -4.75064   0.670
 3.44 6.50 -4.373 -4.373 -4.372 -4.369 -4.365 10.52956 19.17609 -4.49812   0.834
 3.44 6.75 -4.274 -4.274 -4.273 -4.270 -4.266 10.71441 19.42805 -4.24624   1.032
 3.44 7.00 -4.172 -4.172 -4.171 -4.169 -4.165 10.89398 19.67952 -3.99482   1.269
 3.44 7.25 -4.070 -4.070 -4.069 -4.067 -4.064 11.06602 19.93049 -3.74377   1.547
 3.44 7.50 -3.970 -3.969 -3.969 -3.967 -3.964 11.23172 20.18127 -3.49295   1.872
 3.44 7.75 -3.872 -3.871 -3.871 -3.869 -3.867 11.39154 20.43196 -3.24230   2.250
 3.44 8.00 -3.776 -3.776 -3.775 -3.774 -3.771 11.54531 20.68251 -2.99183   2.686
 3.46-2.00 -5.706 -5.702 -5.695 -5.681 -5.661  3.74966 10.39985-13.27442   0.001
 3.46-1.50 -5.745 -5.740 -5.731 -5.713 -5.688  4.11193 10.89988-12.77443   0.001
 3.46-1.00 -5.758 -5.752 -5.741 -5.719 -5.691  4.52724 11.39985-12.27442   0.001
 3.46-0.50 -5.742 -5.736 -5.724 -5.700 -5.670  4.98457 11.89988-11.77443   0.001
 3.46 0.00 -5.703 -5.696 -5.684 -5.660 -5.628  5.46030 12.39985-11.27442   0.002
 3.46 0.50 -5.643 -5.636 -5.625 -5.602 -5.573  5.93161 12.89998-10.77443   0.004
 3.46 1.00 -5.567 -5.562 -5.552 -5.533 -5.508  6.38292 13.40019-10.27417   0.007
 3.46 1.25 -5.523 -5.518 -5.509 -5.492 -5.469  6.59927 13.65042-10.02397   0.009
 3.46 1.50 -5.475 -5.471 -5.463 -5.446 -5.425  6.80895 13.90081 -9.77366   0.011
 3.46 1.75 -5.424 -5.419 -5.411 -5.396 -5.376  7.01145 14.15160 -9.52286   0.014
 3.46 2.00 -5.368 -5.364 -5.357 -5.342 -5.323  7.20683 14.40295 -9.27148   0.018
 3.46 2.25 -5.310 -5.306 -5.299 -5.286 -5.268  7.39428 14.65521 -9.01918   0.022
 3.46 2.50 -5.250 -5.246 -5.240 -5.227 -5.211  7.57588 14.90886 -8.76548   0.027
 3.46 2.75 -5.188 -5.185 -5.179 -5.168 -5.152  7.75090 15.16536 -8.50896   0.033
 3.46 3.00 -5.125 -5.123 -5.118 -5.108 -5.094  7.92526 15.42521 -8.24911   0.041
 3.46 3.20 -5.076 -5.074 -5.069 -5.060 -5.048  8.06445 15.63709 -8.03726   0.048
 3.46 3.40 -5.027 -5.026 -5.022 -5.014 -5.003  8.20364 15.85179 -7.82260   0.056
 3.46 3.60 -4.981 -4.979 -4.976 -4.969 -4.959  8.34459 16.07050 -7.60390   0.066
 3.46 3.80 -4.935 -4.933 -4.931 -4.925 -4.916  8.48976 16.29112 -7.38325   0.078
 3.46 4.00 -4.889 -4.888 -4.886 -4.881 -4.873  8.63819 16.51175 -7.16260   0.092
 3.46 4.20 -4.844 -4.844 -4.842 -4.837 -4.830  8.79172 16.73232 -6.94202   0.110
 3.46 4.40 -4.798 -4.797 -4.795 -4.791 -4.784  8.94875 16.95277 -6.72155   0.132
 3.46 4.60 -4.748 -4.748 -4.746 -4.742 -4.736  9.11041 17.17181 -6.50253   0.159
 3.46 4.80 -4.696 -4.695 -4.694 -4.690 -4.684  9.27418 17.38796 -6.28639   0.192
 3.46 5.00 -4.640 -4.640 -4.638 -4.635 -4.629  9.43807 17.60206 -6.07232   0.232
 3.46 5.20 -4.583 -4.582 -4.580 -4.577 -4.571  9.60202 17.81359 -5.86081   0.280
 3.46 5.40 -4.522 -4.522 -4.520 -4.517 -4.512  9.76597 18.02328 -5.65114   0.338
 3.46 5.60 -4.460 -4.459 -4.458 -4.455 -4.449  9.92888 18.23113 -5.44327   0.408
 3.46 5.80 -4.394 -4.394 -4.393 -4.390 -4.385 10.08950 18.43761 -5.23677   0.491
 3.46 6.00 -4.327 -4.326 -4.325 -4.322 -4.318 10.24846 18.64286 -5.03152   0.590
 3.46 6.25 -4.238 -4.238 -4.237 -4.234 -4.230 10.44444 18.89804 -4.77637   0.739
 3.46 6.50 -4.145 -4.145 -4.144 -4.141 -4.138 10.63739 19.15198 -4.52245   0.923
 3.46 6.75 -4.048 -4.047 -4.046 -4.044 -4.041 10.82741 19.40488 -4.26950   1.149
 3.46 7.00 -3.946 -3.946 -3.945 -3.943 -3.940 11.01368 19.65706 -4.01728   1.423
 3.46 7.25 -3.842 -3.842 -3.841 -3.840 -3.837 11.19528 19.90863 -3.76567   1.754
 3.46 7.50 -3.739 -3.738 -3.738 -3.736 -3.734 11.37144 20.15987 -3.51442   2.149
 3.46 7.75 -3.637 -3.637 -3.636 -3.635 -3.632 11.54047 20.41091 -3.26340   2.611
 3.46 8.00 -3.539 -3.539 -3.538 -3.537 -3.535 11.70295 20.66172 -3.01265   3.147
 3.48-2.00 -5.494 -5.492 -5.490 -5.484 -5.476  4.18041 10.37967-13.29474   0.001
 3.48-1.50 -5.572 -5.570 -5.565 -5.555 -5.542  4.46464 10.87955-12.79480   0.001
 3.48-1.00 -5.631 -5.627 -5.619 -5.605 -5.585  4.77401 11.37967-12.29473   0.001
 3.48-0.50 -5.658 -5.653 -5.644 -5.625 -5.600  5.12287 11.87955-11.79480   0.002
 3.48 0.00 -5.645 -5.639 -5.628 -5.606 -5.577  5.52297 12.37967-11.29474   0.002
 3.48 0.50 -5.590 -5.584 -5.573 -5.552 -5.524  5.96741 12.87961-10.79480   0.004
 3.48 1.00 -5.508 -5.504 -5.494 -5.475 -5.451  6.43104 13.37967-10.29465   0.007
 3.48 1.25 -5.460 -5.456 -5.447 -5.430 -5.407  6.66038 13.62977-10.04459   0.009
 3.48 1.50 -5.407 -5.403 -5.394 -5.378 -5.357  6.88683 13.87996 -9.79453   0.012
 3.48 1.75 -5.349 -5.345 -5.337 -5.322 -5.302  7.10687 14.13033 -9.54417   0.016
 3.48 2.00 -5.286 -5.282 -5.275 -5.260 -5.242  7.32098 14.38094 -9.29354   0.020
 3.48 2.25 -5.218 -5.215 -5.208 -5.195 -5.177  7.52826 14.63189 -9.04258   0.025
 3.48 2.50 -5.146 -5.142 -5.136 -5.124 -5.109  7.72876 14.88344 -8.79102   0.032
 3.48 2.75 -5.068 -5.066 -5.060 -5.050 -5.036  7.92169 15.13643 -8.53799   0.040
 3.48 3.00 -4.987 -4.985 -4.980 -4.971 -4.959  8.10856 15.39129 -8.28308   0.049
 3.48 3.20 -4.920 -4.919 -4.915 -4.907 -4.896  8.25307 15.59749 -8.07683   0.058
 3.48 3.40 -4.853 -4.852 -4.849 -4.842 -4.832  8.39607 15.80610 -7.86819   0.068
 3.48 3.60 -4.787 -4.786 -4.783 -4.778 -4.769  8.53751 16.01801 -7.65629   0.080
 3.48 3.80 -4.724 -4.722 -4.720 -4.715 -4.708  8.67849 16.23332 -7.44104   0.094
 3.48 4.00 -4.663 -4.662 -4.660 -4.656 -4.649  8.81948 16.45117 -7.22323   0.111
 3.48 4.20 -4.607 -4.606 -4.604 -4.600 -4.594  8.96234 16.67243 -7.00193   0.131
 3.48 4.40 -4.553 -4.552 -4.551 -4.547 -4.542  9.10691 16.89369 -6.78064   0.154
 3.48 4.60 -4.500 -4.500 -4.498 -4.495 -4.490  9.25392 17.11464 -6.55968   0.183
 3.48 4.80 -4.448 -4.447 -4.446 -4.443 -4.438  9.40400 17.33452 -6.33983   0.218
 3.48 5.00 -4.394 -4.393 -4.392 -4.389 -4.384  9.55666 17.55340 -6.12102   0.260
 3.48 5.20 -4.337 -4.337 -4.336 -4.333 -4.328  9.71282 17.76916 -5.90525   0.311
 3.48 5.40 -4.278 -4.278 -4.276 -4.274 -4.269  9.87015 17.98281 -5.69158   0.373
 3.48 5.60 -4.216 -4.216 -4.215 -4.212 -4.208 10.02870 18.19422 -5.48012   0.447
 3.48 5.80 -4.152 -4.151 -4.150 -4.148 -4.144 10.18763 18.40371 -5.27060   0.537
 3.48 6.00 -4.085 -4.085 -4.084 -4.081 -4.078 10.34655 18.61151 -5.06278   0.645
 3.48 6.25 -3.999 -3.998 -3.997 -3.995 -3.992 10.54368 18.86921 -4.80518   0.809
 3.48 6.50 -3.908 -3.908 -3.907 -3.905 -3.902 10.73926 19.12516 -4.54929   1.014
 3.48 6.75 -3.815 -3.814 -3.813 -3.811 -3.808 10.93230 19.37963 -4.29473   1.266
 3.48 7.00 -3.717 -3.717 -3.716 -3.714 -3.712 11.12255 19.63307 -4.04125   1.576
 3.48 7.25 -3.617 -3.616 -3.616 -3.614 -3.612 11.30935 19.88569 -3.78866   1.954
 3.48 7.50 -3.515 -3.514 -3.514 -3.512 -3.510 11.49206 20.13767 -3.53671   2.412
 3.48 7.75 -3.413 -3.412 -3.412 -3.410 -3.408 11.66929 20.38919 -3.28518   2.958
 3.48 8.00 -3.312 -3.312 -3.312 -3.310 -3.308 11.84149 20.64018 -3.03414   3.606
 3.50-2.00 -5.236 -5.235 -5.235 -5.233 -5.232  4.65571 10.36003-13.31444   0.001
 3.50-1.50 -5.338 -5.338 -5.336 -5.333 -5.329  4.91598 10.85992-12.81446   0.001
 3.50-1.00 -5.426 -5.425 -5.422 -5.416 -5.408  5.18412 11.36003-12.31444   0.002
 3.50-0.50 -5.493 -5.490 -5.485 -5.475 -5.461  5.46642 11.85992-11.81446   0.002
 3.50 0.00 -5.524 -5.520 -5.513 -5.499 -5.479  5.77232 12.36003-11.31444   0.003
 3.50 0.50 -5.509 -5.505 -5.496 -5.479 -5.457  6.11561 12.85992-10.81446   0.005
 3.50 1.00 -5.448 -5.443 -5.435 -5.419 -5.397  6.50786 13.36003-10.31435   0.008
 3.50 1.25 -5.403 -5.398 -5.391 -5.375 -5.355  6.72215 13.61006-10.06427   0.010
 3.50 1.50 -5.349 -5.345 -5.337 -5.323 -5.303  6.94171 13.86010 -9.81418   0.013
 3.50 1.75 -5.288 -5.285 -5.277 -5.263 -5.245  7.16570 14.11020 -9.56406   0.017
 3.50 2.00 -5.221 -5.217 -5.210 -5.197 -5.179  7.38970 14.36040 -9.31390   0.021
 3.50 2.25 -5.147 -5.144 -5.137 -5.125 -5.109  7.60966 14.61086 -9.06349   0.027
 3.50 2.50 -5.065 -5.062 -5.057 -5.046 -5.031  7.82575 14.86166 -8.81276   0.035
 3.50 2.75 -4.976 -4.973 -4.968 -4.959 -4.946  8.03575 15.11304 -8.56135   0.044
 3.50 3.00 -4.878 -4.876 -4.872 -4.864 -4.853  8.23980 15.36530 -8.30901   0.056
 3.50 3.20 -4.794 -4.792 -4.789 -4.782 -4.773  8.39782 15.56834 -8.10595   0.067
 3.50 3.40 -4.707 -4.706 -4.703 -4.697 -4.689  8.55212 15.77287 -7.90142   0.080
 3.50 3.60 -4.619 -4.618 -4.615 -4.610 -4.603  8.70234 15.97944 -7.69487   0.095
 3.50 3.80 -4.531 -4.530 -4.528 -4.524 -4.518  8.84969 16.18896 -7.48536   0.112
 3.50 4.00 -4.446 -4.445 -4.444 -4.440 -4.435  8.99493 16.40123 -7.27311   0.133
 3.50 4.20 -4.367 -4.367 -4.365 -4.362 -4.357  9.13791 16.61787 -7.05646   0.157
 3.50 4.40 -4.294 -4.294 -4.293 -4.290 -4.285  9.28089 16.83642 -6.83791   0.185
 3.50 4.60 -4.228 -4.227 -4.226 -4.224 -4.220  9.42387 17.05714 -6.61719   0.218
 3.50 4.80 -4.167 -4.166 -4.165 -4.163 -4.159  9.56689 17.27862 -6.39572   0.257
 3.50 5.00 -4.110 -4.109 -4.108 -4.106 -4.102  9.70995 17.50010 -6.17425   0.303
 3.50 5.20 -4.055 -4.054 -4.053 -4.051 -4.047  9.85515 17.71959 -5.95481   0.358
 3.50 5.40 -4.000 -3.999 -3.998 -3.996 -3.993 10.00193 17.93742 -5.73702   0.424
 3.50 5.60 -3.944 -3.943 -3.942 -3.940 -3.937 10.15085 18.15301 -5.52144   0.504
 3.50 5.80 -3.886 -3.885 -3.884 -3.882 -3.879 10.30173 18.36606 -5.30836   0.599
 3.50 6.00 -3.825 -3.825 -3.824 -3.822 -3.819 10.45393 18.57703 -5.09734   0.714
 3.50 6.25 -3.746 -3.745 -3.744 -3.743 -3.740 10.64611 18.83797 -4.83636   0.891
 3.50 6.50 -3.662 -3.662 -3.661 -3.659 -3.657 10.83828 19.09656 -4.57774   1.111
 3.50 6.75 -3.575 -3.575 -3.574 -3.572 -3.570 11.03011 19.35321 -4.32113   1.385
 3.50 7.00 -3.484 -3.484 -3.483 -3.481 -3.479 11.22142 19.60831 -4.06606   1.727
 3.50 7.25 -3.389 -3.389 -3.388 -3.387 -3.385 11.41044 19.86207 -3.81229   2.147
 3.50 7.50 -3.292 -3.292 -3.291 -3.290 -3.288 11.59693 20.11494 -3.55941   2.660
 3.50 7.75 -3.194 -3.194 -3.193 -3.192 -3.190 11.77905 20.36725 -3.30710   3.281
 3.50 8.00 -3.096 -3.095 -3.095 -3.094 -3.092 11.95742 20.61889 -3.05547   4.029
 3.52-2.00 -4.951 -4.951 -4.951 -4.951 -4.951  5.13893 10.33985-13.33442   0.002
 3.52-1.50 -5.072 -5.072 -5.072 -5.072 -5.071  5.39199 10.83992-12.83446   0.002
 3.52-1.00 -5.182 -5.181 -5.181 -5.179 -5.177  5.64758 11.33985-12.33442   0.003
 3.52-0.50 -5.274 -5.273 -5.271 -5.268 -5.264  5.90757 11.83992-11.83446   0.004
 3.52 0.00 -5.338 -5.336 -5.333 -5.327 -5.319  6.17522 12.33985-11.33442   0.005
 3.52 0.50 -5.360 -5.358 -5.353 -5.345 -5.333  6.45637 12.83992-10.83446   0.007
 3.52 1.00 -5.334 -5.331 -5.326 -5.316 -5.302  6.76042 13.34005-10.33442   0.010
 3.52 1.25 -5.304 -5.301 -5.296 -5.285 -5.271  6.92524 13.59001-10.08444   0.012
 3.52 1.50 -5.263 -5.260 -5.255 -5.244 -5.229  7.10003 13.83998 -9.83446   0.015
 3.52 1.75 -5.212 -5.209 -5.204 -5.193 -5.178  7.28756 14.09009 -9.58434   0.019
 3.52 2.00 -5.151 -5.148 -5.142 -5.131 -5.117  7.48501 14.34025 -9.33414   0.023
 3.52 2.25 -5.080 -5.077 -5.072 -5.061 -5.047  7.69347 14.59042 -9.08390   0.029
 3.52 2.50 -4.997 -4.994 -4.989 -4.980 -4.967  7.90520 14.84067 -8.83357   0.037
 3.52 2.75 -4.901 -4.899 -4.895 -4.887 -4.876  8.11932 15.09131 -8.58294   0.048
 3.52 3.00 -4.793 -4.791 -4.788 -4.781 -4.771  8.33345 15.34242 -8.33189   0.061
 3.52 3.20 -4.698 -4.696 -4.693 -4.687 -4.679  8.50154 15.54387 -8.13046   0.074
 3.52 3.40 -4.595 -4.594 -4.592 -4.587 -4.580  8.66712 15.74610 -7.92823   0.089
 3.52 3.60 -4.488 -4.487 -4.485 -4.481 -4.475  8.82957 15.94940 -7.72494   0.107
 3.52 3.80 -4.378 -4.378 -4.376 -4.372 -4.367  8.98837 16.15460 -7.51975   0.129
 3.52 4.00 -4.269 -4.268 -4.267 -4.264 -4.260  9.14395 16.36173 -7.31265   0.154
 3.52 4.20 -4.164 -4.163 -4.162 -4.160 -4.156  9.29597 16.57225 -7.10210   0.184
 3.52 4.40 -4.065 -4.065 -4.064 -4.061 -4.058  9.44542 16.78562 -6.88871   0.218
 3.52 4.60 -3.975 -3.974 -3.973 -3.971 -3.968  9.59227 17.00299 -6.67136   0.259
 3.52 4.80 -3.893 -3.893 -3.892 -3.890 -3.887  9.73731 17.22277 -6.45163   0.305
 3.52 5.00 -3.821 -3.821 -3.820 -3.818 -3.815  9.88081 17.44326 -6.23114   0.360
 3.52 5.20 -3.757 -3.756 -3.756 -3.754 -3.751 10.02250 17.66425 -6.01013   0.424
 3.52 5.40 -3.698 -3.698 -3.697 -3.696 -3.693 10.16418 17.88523 -5.78911   0.499
 3.52 5.60 -3.644 -3.643 -3.643 -3.641 -3.639 10.30599 18.10497 -5.56938   0.588
 3.52 5.80 -3.591 -3.590 -3.590 -3.588 -3.586 10.44829 18.32195 -5.35242   0.693
 3.52 6.00 -3.538 -3.537 -3.537 -3.535 -3.533 10.59106 18.53694 -5.13745   0.817
 3.52 6.25 -3.470 -3.469 -3.469 -3.467 -3.465 10.77227 18.80200 -4.87229   1.006
 3.52 6.50 -3.398 -3.398 -3.397 -3.395 -3.393 10.95530 19.06409 -4.61013   1.242
 3.52 6.75 -3.322 -3.322 -3.321 -3.320 -3.318 11.14046 19.32356 -4.35072   1.537
 3.52 7.00 -3.242 -3.242 -3.241 -3.240 -3.238 11.32613 19.58092 -4.09340   1.903
 3.52 7.25 -3.157 -3.157 -3.156 -3.155 -3.153 11.51216 19.83639 -3.83781   2.358
 3.52 7.50 -3.069 -3.068 -3.068 -3.066 -3.065 11.69819 20.09061 -3.58353   2.921
 3.52 7.75 -2.977 -2.977 -2.976 -2.975 -2.973 11.88163 20.34403 -3.33018   3.608
 3.52 8.00 -2.884 -2.884 -2.883 -2.882 -2.880 12.06333 20.59649 -3.07790   4.448
 3.54-2.00 -4.649 -4.649 -4.649 -4.649 -4.649  5.60638 10.31994-13.35438   0.003
 3.54-1.50 -4.787 -4.787 -4.787 -4.787 -4.786  5.85739 10.81987-12.85449   0.003
 3.54-1.00 -4.913 -4.913 -4.913 -4.912 -4.912  6.10924 11.31994-12.35438   0.005
 3.54-0.50 -5.024 -5.024 -5.024 -5.023 -5.022  6.36248 11.81987-11.85449   0.006
 3.54 0.00 -5.112 -5.112 -5.111 -5.110 -5.108  6.61826 12.31994-11.35438   0.008
 3.54 0.50 -5.162 -5.162 -5.160 -5.158 -5.154  6.87841 12.81994-10.85449   0.011
 3.54 1.00 -5.163 -5.162 -5.159 -5.156 -5.150  7.14644 13.31994-10.35438   0.015
 3.54 1.25 -5.144 -5.143 -5.140 -5.136 -5.130  7.28502 13.56994-10.10444   0.018
 3.54 1.50 -5.114 -5.113 -5.110 -5.105 -5.098  7.42781 13.81994 -9.85449   0.021
 3.54 1.75 -5.074 -5.073 -5.070 -5.064 -5.056  7.57649 14.07004 -9.60439   0.025
 3.54 2.00 -5.024 -5.022 -5.019 -5.013 -5.004  7.73199 14.32015 -9.35428   0.030
 3.54 2.25 -4.963 -4.962 -4.958 -4.952 -4.943  7.89646 14.57021 -9.10423   0.036
 3.54 2.50 -4.890 -4.888 -4.885 -4.879 -4.871  8.07004 14.82027 -8.85418   0.044
 3.54 2.75 -4.803 -4.801 -4.798 -4.792 -4.785  8.25477 15.07060 -8.60383   0.054
 3.54 3.00 -4.698 -4.697 -4.694 -4.689 -4.682  8.44747 15.32119 -8.35320   0.068
 3.54 3.20 -4.602 -4.601 -4.599 -4.594 -4.588  8.60833 15.52186 -8.15250   0.082
 3.54 3.40 -4.496 -4.495 -4.493 -4.489 -4.484  8.77030 15.72289 -7.95144   0.098
 3.54 3.60 -4.381 -4.380 -4.379 -4.375 -4.370  8.93332 15.92447 -7.74987   0.119
 3.54 3.80 -4.260 -4.259 -4.257 -4.255 -4.250  9.09657 16.12718 -7.54720   0.143
 3.54 4.00 -4.134 -4.134 -4.133 -4.130 -4.126  9.25983 16.33102 -7.34342   0.172
 3.54 4.20 -4.009 -4.009 -4.008 -4.006 -4.002  9.42032 16.53692 -7.13751   0.207
 3.54 4.40 -3.887 -3.887 -3.886 -3.884 -3.881  9.57873 16.74516 -6.92923   0.248
 3.54 4.60 -3.772 -3.771 -3.770 -3.769 -3.766  9.73472 16.95661 -6.71773   0.297
 3.54 4.80 -3.665 -3.664 -3.664 -3.662 -3.660  9.88782 17.17149 -6.50283   0.355
 3.54 5.00 -3.569 -3.568 -3.568 -3.566 -3.564 10.03822 17.38899 -6.28534   0.422
 3.54 5.20 -3.484 -3.484 -3.483 -3.482 -3.479 10.18546 17.61014 -6.06424   0.500
 3.54 5.40 -3.410 -3.410 -3.409 -3.408 -3.406 10.33026 17.83129 -5.84314   0.591
 3.54 5.60 -3.345 -3.345 -3.345 -3.343 -3.341 10.47221 18.05220 -5.62226   0.696
 3.54 5.80 -3.288 -3.288 -3.287 -3.286 -3.284 10.61247 18.27227 -5.40218   0.818
 3.54 6.00 -3.236 -3.235 -3.235 -3.233 -3.232 10.75182 18.49150 -5.18290   0.960
 3.54 6.25 -3.173 -3.173 -3.172 -3.171 -3.170 10.92506 18.76128 -4.91313   1.172
 3.54 6.50 -3.112 -3.111 -3.111 -3.110 -3.108 11.09830 19.02776 -4.64666   1.431
 3.54 6.75 -3.048 -3.048 -3.047 -3.046 -3.045 11.27317 19.29072 -4.38367   1.750
 3.54 7.00 -2.982 -2.981 -2.981 -2.980 -2.978 11.44932 19.55096 -4.12338   2.144
 3.54 7.25 -2.911 -2.910 -2.910 -2.909 -2.907 11.62739 19.80877 -3.86551   2.631
 3.54 7.50 -2.835 -2.835 -2.834 -2.833 -2.832 11.80618 20.06483 -3.60942   3.232
 3.54 7.75 -2.756 -2.755 -2.755 -2.753 -2.752 11.98532 20.31967 -3.35460   3.972
 3.54 8.00 -2.672 -2.672 -2.671 -2.670 -2.668 12.16495 20.57310 -3.10122   4.886
 3.56-2.00 -4.332 -4.332 -4.332 -4.332 -4.332  6.05652 10.29994-13.37448   0.004
 3.56-1.50 -4.486 -4.486 -4.486 -4.486 -4.486  6.30707 10.79982-12.87452   0.006
 3.56-1.00 -4.627 -4.627 -4.627 -4.627 -4.627  6.55775 11.29994-12.37448   0.008
 3.56-0.50 -4.755 -4.755 -4.755 -4.755 -4.755  6.80882 11.79982-11.87452   0.010
 3.56 0.00 -4.861 -4.861 -4.861 -4.861 -4.861  7.06070 12.29994-11.37448   0.013
 3.56 0.50 -4.933 -4.933 -4.933 -4.932 -4.931  7.31429 12.79982-10.87452   0.018
 3.56 1.00 -4.953 -4.953 -4.953 -4.952 -4.951  7.57031 13.29994-10.37448   0.024
 3.56 1.25 -4.942 -4.941 -4.941 -4.940 -4.938  7.69995 13.54988-10.12450   0.028
 3.56 1.50 -4.916 -4.916 -4.915 -4.914 -4.912  7.83110 13.79982 -9.87452   0.033
 3.56 1.75 -4.879 -4.878 -4.877 -4.876 -4.874  7.96429 14.04988 -9.62446   0.038
 3.56 2.00 -4.830 -4.829 -4.828 -4.826 -4.824  8.10003 14.29994 -9.37438   0.044
 3.56 2.25 -4.770 -4.769 -4.768 -4.766 -4.763  8.23925 14.54999 -9.12430   0.052
 3.56 2.50 -4.699 -4.698 -4.697 -4.694 -4.691  8.38274 14.80003 -8.87420   0.061
 3.56 2.75 -4.616 -4.615 -4.614 -4.611 -4.608  8.53207 15.05015 -8.62406   0.073
 3.56 3.00 -4.520 -4.519 -4.518 -4.515 -4.512  8.68789 15.30038 -8.37387   0.087
 3.56 3.20 -4.433 -4.432 -4.431 -4.429 -4.425  8.81842 15.50072 -8.17351   0.101
 3.56 3.40 -4.337 -4.336 -4.335 -4.332 -4.329  8.95399 15.70126 -7.97294   0.118
 3.56 3.60 -4.231 -4.230 -4.229 -4.227 -4.224  9.09531 15.90206 -7.77213   0.139
 3.56 3.80 -4.117 -4.116 -4.115 -4.113 -4.110  9.24158 16.10341 -7.57083   0.165
 3.56 4.00 -3.995 -3.995 -3.994 -3.992 -3.989  9.39182 16.30535 -7.36896   0.196
 3.56 4.20 -3.869 -3.868 -3.867 -3.866 -3.863  9.54634 16.50850 -7.16584   0.234
 3.56 4.40 -3.740 -3.739 -3.739 -3.737 -3.735  9.70188 16.71319 -6.96116   0.280
 3.56 4.60 -3.611 -3.611 -3.610 -3.609 -3.607  9.85843 16.91992 -6.75441   0.335
 3.56 4.80 -3.487 -3.487 -3.486 -3.485 -3.483 10.01522 17.12960 -6.54471   0.401
 3.56 5.00 -3.369 -3.369 -3.368 -3.367 -3.365 10.17202 17.34203 -6.33227   0.481
 3.56 5.20 -3.262 -3.261 -3.261 -3.260 -3.258 10.32638 17.55895 -6.11546   0.575
 3.56 5.40 -3.165 -3.165 -3.164 -3.163 -3.162 10.47859 17.77768 -5.89679   0.685
 3.56 5.60 -3.081 -3.081 -3.080 -3.079 -3.078 10.62779 17.99846 -5.67598   0.813
 3.56 5.80 -3.009 -3.008 -3.008 -3.007 -3.005 10.77333 18.21992 -5.45445   0.962
 3.56 6.00 -2.946 -2.946 -2.945 -2.944 -2.943 10.91582 18.44138 -5.23292   1.133
 3.56 6.25 -2.878 -2.878 -2.877 -2.876 -2.874 11.08898 18.71525 -4.95902   1.383
 3.56 6.50 -2.817 -2.817 -2.816 -2.815 -2.814 11.25959 18.98646 -4.68782   1.684
 3.56 6.75 -2.760 -2.760 -2.759 -2.758 -2.757 11.42793 19.25362 -4.42069   2.044
 3.56 7.00 -2.704 -2.703 -2.703 -2.702 -2.700 11.59627 19.51759 -4.15677   2.480
 3.56 7.25 -2.645 -2.645 -2.645 -2.643 -2.642 11.76493 19.77849 -3.89598   3.011
 3.56 7.50 -2.584 -2.584 -2.583 -2.582 -2.580 11.93399 20.03703 -3.63752   3.659
 3.56 7.75 -2.520 -2.519 -2.519 -2.517 -2.515 12.10420 20.29377 -3.38076   4.451
 3.56 8.00 -2.451 -2.450 -2.450 -2.448 -2.446 12.27531 20.54851 -3.12592   5.421
 3.58-2.00 -4.003 -4.003 -4.003 -4.003 -4.003  6.48558 10.27990-13.39459   0.007
 3.58-1.50 -4.173 -4.172 -4.172 -4.172 -4.172  6.73576 10.77981-12.89449   0.009
 3.58-1.00 -4.329 -4.329 -4.329 -4.329 -4.329  6.98605 11.27989-12.39448   0.012
 3.58-0.50 -4.471 -4.471 -4.471 -4.471 -4.470  7.23654 11.77981-11.89449   0.016
 3.58 0.00 -4.591 -4.591 -4.591 -4.591 -4.591  7.48714 12.27989-11.39448   0.021
 3.58 0.50 -4.678 -4.678 -4.677 -4.677 -4.677  7.73838 12.77981-10.89449   0.029
 3.58 1.00 -4.711 -4.711 -4.710 -4.710 -4.710  7.99056 13.27990-10.39448   0.038
 3.58 1.25 -4.702 -4.702 -4.702 -4.702 -4.701  8.11727 13.52989-10.14449   0.044
 3.58 1.50 -4.677 -4.677 -4.677 -4.676 -4.676  8.24452 13.77989 -9.89449   0.051
 3.58 1.75 -4.636 -4.636 -4.635 -4.635 -4.635  8.37242 14.02989 -9.64449   0.059
 3.58 2.00 -4.581 -4.580 -4.580 -4.580 -4.579  8.50120 14.27989 -9.39448   0.069
 3.58 2.25 -4.513 -4.513 -4.513 -4.512 -4.512  8.63131 14.52992 -9.14449   0.080
 3.58 2.50 -4.434 -4.434 -4.434 -4.433 -4.433  8.76305 14.77996 -8.89449   0.093
 3.58 2.75 -4.346 -4.346 -4.345 -4.345 -4.344  8.89709 15.03002 -8.64437   0.108
 3.58 3.00 -4.248 -4.248 -4.248 -4.247 -4.246  9.03383 15.28012 -8.39416   0.127
 3.58 3.20 -4.164 -4.163 -4.163 -4.162 -4.161  9.14560 15.48029 -8.19395   0.144
 3.58 3.40 -4.074 -4.073 -4.073 -4.072 -4.071  9.26005 15.68057 -7.99365   0.165
 3.58 3.60 -3.978 -3.978 -3.977 -3.977 -3.975  9.37754 15.88097 -7.79325   0.188
 3.58 3.80 -3.877 -3.877 -3.877 -3.876 -3.874  9.49891 16.08165 -7.59261   0.217
 3.58 4.00 -3.771 -3.771 -3.771 -3.770 -3.768  9.62408 16.28262 -7.39169   0.250
 3.58 4.20 -3.661 -3.660 -3.660 -3.659 -3.657  9.75384 16.48427 -7.19011   0.290
 3.58 4.40 -3.545 -3.545 -3.545 -3.544 -3.542  9.88786 16.68683 -6.98763   0.339
 3.58 4.60 -3.427 -3.427 -3.426 -3.425 -3.424 10.02655 16.89058 -6.78393   0.398
 3.58 4.80 -3.307 -3.307 -3.306 -3.305 -3.304 10.16927 17.09640 -6.57811   0.469
 3.58 5.00 -3.188 -3.187 -3.187 -3.186 -3.184 10.31534 17.30428 -6.37018   0.555
 3.58 5.20 -3.072 -3.071 -3.071 -3.070 -3.068 10.46585 17.51577 -6.15859   0.660
 3.58 5.40 -2.961 -2.961 -2.961 -2.960 -2.958 10.61636 17.73007 -5.94420   0.784
 3.58 5.60 -2.860 -2.860 -2.860 -2.859 -2.857 10.76676 17.94839 -5.72583   0.932
 3.58 5.80 -2.770 -2.770 -2.769 -2.768 -2.767 10.91664 18.16877 -5.50546   1.108
 3.58 6.00 -2.690 -2.690 -2.690 -2.689 -2.687 11.06595 18.38935 -5.28492   1.317
 3.58 6.25 -2.606 -2.606 -2.606 -2.605 -2.603 11.24589 18.66521 -5.00911   1.620
 3.58 6.50 -2.536 -2.536 -2.535 -2.534 -2.532 11.42095 18.94107 -4.73330   1.981
 3.58 6.75 -2.475 -2.475 -2.475 -2.474 -2.472 11.59024 19.21243 -4.46189   2.407
 3.58 7.00 -2.421 -2.421 -2.420 -2.419 -2.417 11.75626 19.48058 -4.19368   2.914
 3.58 7.25 -2.370 -2.369 -2.369 -2.367 -2.365 11.91951 19.74497 -3.92927   3.516
 3.58 7.50 -2.319 -2.318 -2.318 -2.316 -2.314 12.08171 20.00647 -3.66776   4.238
 3.58 7.75 -2.267 -2.266 -2.266 -2.264 -2.262 12.24343 20.26564 -3.40861   5.106
 3.58 8.00 -2.212 -2.212 -2.211 -2.210 -2.207 12.40449 20.52231 -3.15200   6.148
 3.60-2.00 -3.664 -3.664 -3.664 -3.663 -3.663  6.89548 10.25983-13.41465   0.011
 3.60-1.50 -3.849 -3.849 -3.849 -3.849 -3.848  7.14551 10.75974-12.91471   0.014
 3.60-1.00 -4.020 -4.020 -4.020 -4.020 -4.020  7.39585 11.25983-12.41454   0.019
 3.60-0.50 -4.175 -4.175 -4.175 -4.175 -4.175  7.64591 11.75982-11.91435   0.025
 3.60 0.00 -4.306 -4.306 -4.306 -4.306 -4.306  7.89625 12.25983-11.41443   0.033
 3.60 0.50 -4.400 -4.400 -4.400 -4.400 -4.400  8.14675 12.75982-10.91435   0.045
 3.60 1.00 -4.437 -4.437 -4.437 -4.437 -4.437  8.39759 13.25983-10.41443   0.060
 3.60 1.25 -4.428 -4.428 -4.428 -4.428 -4.428  8.52318 13.50986-10.16439   0.069
 3.60 1.50 -4.400 -4.400 -4.400 -4.399 -4.399  8.64895 13.75990 -9.91435   0.080
 3.60 1.75 -4.353 -4.353 -4.353 -4.352 -4.352  8.77505 14.00986 -9.66439   0.092
 3.60 2.00 -4.290 -4.290 -4.289 -4.289 -4.289  8.90151 14.25983 -9.41443   0.106
 3.60 2.25 -4.213 -4.213 -4.213 -4.213 -4.212  9.02843 14.50985 -9.16439   0.123
 3.60 2.50 -4.126 -4.126 -4.126 -4.126 -4.125  9.15594 14.75989 -8.91435   0.143
 3.60 2.75 -4.031 -4.031 -4.030 -4.030 -4.030  9.28427 15.00997 -8.66433   0.166
 3.60 3.00 -3.928 -3.928 -3.928 -3.928 -3.927  9.41364 15.26007 -8.41431   0.192
 3.60 3.20 -3.843 -3.842 -3.842 -3.842 -3.841  9.51814 15.46016 -8.21424   0.217
 3.60 3.40 -3.754 -3.753 -3.753 -3.753 -3.752  9.62375 15.66028 -8.01409   0.245
 3.60 3.60 -3.662 -3.661 -3.661 -3.661 -3.660  9.73057 15.86048 -7.81388   0.277
 3.60 3.80 -3.567 -3.567 -3.566 -3.566 -3.565  9.83905 16.06090 -7.61351   0.313
 3.60 4.00 -3.470 -3.469 -3.469 -3.468 -3.467  9.94924 16.26150 -7.41296   0.356
 3.60 4.20 -3.370 -3.369 -3.369 -3.368 -3.367 10.06159 16.46235 -7.21205   0.405
 3.60 4.40 -3.267 -3.267 -3.267 -3.266 -3.265 10.17642 16.66366 -7.01064   0.462
 3.60 4.60 -3.163 -3.163 -3.162 -3.161 -3.160 10.29397 16.86560 -6.80860   0.529
 3.60 4.80 -3.057 -3.057 -3.056 -3.055 -3.054 10.41486 17.06886 -6.60533   0.608
 3.60 5.00 -2.950 -2.950 -2.950 -2.949 -2.947 10.53908 17.27346 -6.40077   0.701
 3.60 5.20 -2.844 -2.844 -2.844 -2.843 -2.841 10.66730 17.48062 -6.19366   0.813
 3.60 5.40 -2.740 -2.740 -2.739 -2.739 -2.737 10.79926 17.69037 -5.98395   0.946
 3.60 5.60 -2.640 -2.640 -2.639 -2.639 -2.637 10.93604 17.90362 -5.77069   1.108
 3.60 5.80 -2.546 -2.546 -2.545 -2.544 -2.543 11.07607 18.12010 -5.55415   1.302
 3.60 6.00 -2.459 -2.459 -2.458 -2.457 -2.456 11.21775 18.33885 -5.33536   1.532
 3.60 6.25 -2.362 -2.362 -2.362 -2.361 -2.359 11.39658 18.61570 -5.05854   1.882
 3.60 6.50 -2.279 -2.279 -2.279 -2.277 -2.276 11.57542 18.89254 -4.78173   2.313
 3.60 6.75 -2.209 -2.209 -2.208 -2.207 -2.205 11.74859 19.16727 -4.50701   2.823
 3.60 7.00 -2.149 -2.149 -2.148 -2.147 -2.145 11.91751 19.43981 -4.23448   3.429
 3.60 7.25 -2.097 -2.097 -2.096 -2.095 -2.093 12.08098 19.70816 -3.96619   4.139
 3.60 7.50 -2.050 -2.049 -2.049 -2.047 -2.045 12.24080 19.97327 -3.70115   4.975
 3.60 7.75 -2.005 -2.005 -2.004 -2.002 -2.000 12.39798 20.23539 -3.43905   5.962
 3.60 8.00 -1.961 -1.961 -1.960 -1.958 -1.956 12.55218 20.49443 -3.18000   7.120
 3.62-2.00 -3.318 -3.318 -3.318 -3.318 -3.317  7.28825 10.23930-13.43498   0.016
 3.62-1.50 -3.517 -3.517 -3.517 -3.517 -3.517  7.53845 10.73957-12.93479   0.022
 3.62-1.00 -3.703 -3.703 -3.703 -3.703 -3.703  7.78859 11.23980-12.43462   0.029
 3.62-0.50 -3.871 -3.871 -3.871 -3.871 -3.871  8.03862 11.73973-11.93479   0.039
 3.62 0.00 -4.012 -4.012 -4.012 -4.012 -4.012  8.28892 12.23980-11.43451   0.051
 3.62 0.50 -4.110 -4.110 -4.110 -4.110 -4.110  8.53908 12.73981-10.93442   0.069
 3.62 1.00 -4.145 -4.145 -4.145 -4.145 -4.145  8.78944 13.23980-10.43451   0.091
 3.62 1.25 -4.133 -4.133 -4.133 -4.133 -4.132  8.91462 13.48981-10.18446   0.105
 3.62 1.50 -4.100 -4.100 -4.100 -4.100 -4.099  9.03981 13.73981 -9.93442   0.122
 3.62 1.75 -4.048 -4.048 -4.047 -4.047 -4.047  9.16528 13.98981 -9.68446   0.141
 3.62 2.00 -3.978 -3.978 -3.978 -3.978 -3.977  9.29093 14.23980 -9.43451   0.163
 3.62 2.25 -3.896 -3.895 -3.895 -3.895 -3.895  9.41670 14.48980 -9.18446   0.189
 3.62 2.50 -3.803 -3.803 -3.803 -3.802 -3.802  9.54270 14.73981 -8.93442   0.218
 3.62 2.75 -3.703 -3.703 -3.703 -3.702 -3.702  9.66903 14.98993 -8.68440   0.252
 3.62 3.00 -3.598 -3.598 -3.598 -3.597 -3.597  9.79574 15.24005 -8.43439   0.291
 3.62 3.20 -3.511 -3.511 -3.510 -3.510 -3.509  9.89744 15.44005 -8.23440   0.327
 3.62 3.40 -3.422 -3.421 -3.421 -3.421 -3.420  9.99955 15.64005 -8.03441   0.369
 3.62 3.60 -3.331 -3.330 -3.330 -3.330 -3.329 10.10218 15.84009 -7.83433   0.415
 3.62 3.80 -3.238 -3.238 -3.237 -3.237 -3.236 10.20554 16.04026 -7.63407   0.467
 3.62 4.00 -3.144 -3.143 -3.143 -3.142 -3.141 10.30963 16.24055 -7.43368   0.526
 3.62 4.20 -3.048 -3.048 -3.047 -3.046 -3.045 10.41461 16.44104 -7.23323   0.594
 3.62 4.40 -2.951 -2.950 -2.950 -2.949 -2.948 10.52063 16.64183 -7.03259   0.671
 3.62 4.60 -2.852 -2.852 -2.852 -2.851 -2.849 10.62775 16.84297 -6.83155   0.760
 3.62 4.80 -2.754 -2.753 -2.753 -2.752 -2.750 10.73629 17.04484 -6.62964   0.860
 3.62 5.00 -2.654 -2.654 -2.654 -2.653 -2.651 10.84628 17.24748 -6.42690   0.976
 3.62 5.20 -2.556 -2.556 -2.555 -2.554 -2.552 10.95795 17.45167 -6.22271   1.110
 3.62 5.40 -2.460 -2.459 -2.459 -2.458 -2.456 11.07171 17.65774 -6.01666   1.265
 3.62 5.60 -2.367 -2.367 -2.366 -2.365 -2.363 11.18775 17.86638 -5.80799   1.446
 3.62 5.80 -2.279 -2.279 -2.279 -2.278 -2.276 11.30671 18.07833 -5.59598   1.659
 3.62 6.00 -2.198 -2.198 -2.197 -2.196 -2.194 11.42862 18.29314 -5.38111   1.909
 3.62 6.25 -2.107 -2.106 -2.106 -2.105 -2.103 11.58703 18.56748 -5.10696   2.291
 3.62 6.50 -2.025 -2.025 -2.024 -2.023 -2.021 11.74920 18.84298 -4.83150   2.761
 3.62 6.75 -1.953 -1.953 -1.953 -1.951 -1.949 11.91527 19.11924 -4.55518   3.343
 3.62 7.00 -1.890 -1.890 -1.889 -1.888 -1.886 12.08135 19.39550 -4.27885   4.047
 3.62 7.25 -1.836 -1.835 -1.835 -1.833 -1.831 12.24444 19.66767 -4.00663   4.883
 3.62 7.50 -1.788 -1.787 -1.787 -1.785 -1.782 12.40466 19.93672 -3.73755   5.871
 3.62 7.75 -1.746 -1.745 -1.744 -1.743 -1.740 12.56013 20.20212 -3.47216   7.022
 3.62 8.00 -1.707 -1.707 -1.706 -1.704 -1.701 12.71147 20.46404 -3.21028   8.359
 3.64-2.00 -2.970 -2.970 -2.969 -2.969 -2.969  7.66143 10.21880-13.45568   0.024
 3.64-1.50 -3.182 -3.182 -3.181 -3.181 -3.181  7.91196 10.71917-12.95507   0.033
 3.64-1.00 -3.381 -3.381 -3.381 -3.381 -3.380  8.16227 11.21958-12.45482   0.043
 3.64-0.50 -3.562 -3.562 -3.562 -3.562 -3.561  8.41246 11.71966-11.95468   0.058
 3.64 0.00 -3.714 -3.714 -3.714 -3.714 -3.713  8.66266 12.21985-11.45457   0.077
 3.64 0.50 -3.817 -3.817 -3.817 -3.817 -3.817  8.91275 12.71983-10.95468   0.103
 3.64 1.00 -3.850 -3.849 -3.849 -3.849 -3.849  9.16286 13.21985-10.45445   0.137
 3.64 1.25 -3.834 -3.834 -3.834 -3.833 -3.833  9.28798 13.46984-10.20456   0.158
 3.64 1.50 -3.797 -3.797 -3.797 -3.797 -3.796  9.41313 13.71983 -9.95468   0.183
 3.64 1.75 -3.741 -3.740 -3.740 -3.740 -3.739  9.53834 13.96983 -9.70456   0.211
 3.64 2.00 -3.667 -3.667 -3.667 -3.667 -3.666  9.66361 14.21985 -9.45445   0.244
 3.64 2.25 -3.581 -3.581 -3.581 -3.580 -3.580  9.78891 14.46988 -9.20435   0.282
 3.64 2.50 -3.486 -3.486 -3.485 -3.485 -3.484  9.91429 14.71991 -8.95429   0.326
 3.64 2.75 -3.384 -3.383 -3.383 -3.383 -3.382 10.03983 14.96988 -8.70437   0.377
 3.64 3.00 -3.277 -3.277 -3.277 -3.276 -3.275 10.16554 15.21985 -8.45445   0.436
 3.64 3.20 -3.189 -3.189 -3.189 -3.188 -3.187 10.26625 15.41988 -8.25441   0.489
 3.64 3.40 -3.100 -3.099 -3.099 -3.098 -3.097 10.36713 15.61995 -8.05434   0.549
 3.64 3.60 -3.009 -3.008 -3.008 -3.007 -3.006 10.46822 15.82005 -7.85424   0.617
 3.64 3.80 -2.916 -2.916 -2.916 -2.915 -2.913 10.56960 16.02018 -7.65412   0.694
 3.64 4.00 -2.823 -2.823 -2.822 -2.821 -2.820 10.67127 16.22037 -7.45395   0.780
 3.64 4.20 -2.728 -2.728 -2.727 -2.726 -2.725 10.77325 16.42062 -7.25372   0.877
 3.64 4.40 -2.633 -2.632 -2.632 -2.631 -2.629 10.87565 16.62100 -7.05335   0.987
 3.64 4.60 -2.536 -2.536 -2.536 -2.534 -2.533 10.97856 16.82160 -6.85277   1.111
 3.64 4.80 -2.440 -2.439 -2.439 -2.437 -2.436 11.08206 17.02269 -6.65170   1.252
 3.64 5.00 -2.343 -2.342 -2.342 -2.341 -2.339 11.18611 17.22428 -6.45014   1.411
 3.64 5.20 -2.246 -2.246 -2.245 -2.244 -2.242 11.29069 17.42668 -6.24765   1.592
 3.64 5.40 -2.151 -2.151 -2.151 -2.149 -2.147 11.39588 17.63030 -6.04391   1.796
 3.64 5.60 -2.060 -2.059 -2.059 -2.058 -2.056 11.50165 17.83563 -5.83853   2.029
 3.64 5.80 -1.973 -1.973 -1.972 -1.971 -1.969 11.60818 18.04369 -5.63057   2.293
 3.64 6.00 -1.893 -1.892 -1.892 -1.890 -1.888 11.71559 18.25431 -5.42010   2.595
 3.64 6.25 -1.804 -1.804 -1.804 -1.802 -1.800 11.85148 18.52308 -5.15133   3.035
 3.64 6.50 -1.730 -1.730 -1.729 -1.728 -1.725 11.98985 18.79560 -4.87877   3.559
 3.64 6.75 -1.668 -1.668 -1.667 -1.665 -1.663 12.13281 19.07234 -4.60200   4.196
 3.64 7.00 -1.615 -1.614 -1.614 -1.612 -1.609 12.27921 19.34908 -4.32523   4.967
 3.64 7.25 -1.568 -1.567 -1.567 -1.565 -1.562 12.43024 19.62410 -4.05027   5.910
 3.64 7.50 -1.525 -1.525 -1.524 -1.522 -1.519 12.58127 19.89719 -3.77728   7.032
 3.64 7.75 -1.487 -1.487 -1.486 -1.484 -1.481 12.73092 20.16608 -3.50837   8.354
 3.64 8.00 -1.453 -1.453 -1.452 -1.450 -1.447 12.87967 20.43152 -3.24283   9.914
 3.66-2.00 -2.623 -2.622 -2.622 -2.622 -2.621  8.01828 10.19701-13.47730   0.036
 3.66-1.50 -2.845 -2.845 -2.844 -2.844 -2.844  8.26975 10.69827-12.97593   0.048
 3.66-1.00 -3.056 -3.056 -3.055 -3.055 -3.055  8.52035 11.19893-12.47534   0.064
 3.66-0.50 -3.249 -3.249 -3.249 -3.249 -3.248  8.77085 11.69932-11.97510   0.085
 3.66 0.00 -3.414 -3.414 -3.413 -3.413 -3.413  9.02119 12.19948-11.47470   0.114
 3.66 0.50 -3.526 -3.526 -3.525 -3.525 -3.525  9.27138 12.69967-10.97469   0.152
 3.66 1.00 -3.559 -3.559 -3.559 -3.558 -3.558  9.52140 13.19976-10.47457   0.203
 3.66 1.25 -3.542 -3.542 -3.541 -3.541 -3.540  9.64646 13.44980-10.22463   0.235
 3.66 1.50 -3.502 -3.502 -3.502 -3.502 -3.501  9.77151 13.69984 -9.97469   0.271
 3.66 1.75 -3.443 -3.443 -3.443 -3.443 -3.442  9.89656 13.94980 -9.72457   0.313
 3.66 2.00 -3.368 -3.368 -3.368 -3.367 -3.366 10.02160 14.19976 -9.47444   0.361
 3.66 2.25 -3.280 -3.280 -3.280 -3.279 -3.278 10.14683 14.44978 -9.22457   0.417
 3.66 2.50 -3.183 -3.183 -3.183 -3.182 -3.181 10.27207 14.69984 -8.97469   0.481
 3.66 2.75 -3.080 -3.080 -3.080 -3.079 -3.078 10.39732 14.94993 -8.72457   0.556
 3.66 3.00 -2.973 -2.973 -2.972 -2.971 -2.970 10.52258 15.20003 -8.47444   0.642
 3.66 3.20 -2.884 -2.884 -2.884 -2.883 -2.882 10.62289 15.39999 -8.27437   0.721
 3.66 3.40 -2.795 -2.794 -2.794 -2.793 -2.791 10.72328 15.59995 -8.07431   0.809
 3.66 3.60 -2.703 -2.703 -2.702 -2.701 -2.700 10.82372 15.79992 -7.87426   0.908
 3.66 3.80 -2.611 -2.611 -2.610 -2.609 -2.607 10.92426 15.99995 -7.67422   1.020
 3.66 4.00 -2.517 -2.517 -2.516 -2.515 -2.513 11.02490 16.20003 -7.47418   1.145
 3.66 4.20 -2.423 -2.423 -2.422 -2.421 -2.419 11.12575 16.40019 -7.27410   1.286
 3.66 4.40 -2.328 -2.327 -2.327 -2.325 -2.323 11.22679 16.60045 -7.07396   1.445
 3.66 4.60 -2.232 -2.232 -2.231 -2.229 -2.227 11.32803 16.80081 -6.87367   1.624
 3.66 4.80 -2.136 -2.135 -2.134 -2.133 -2.131 11.42948 17.00139 -6.67299   1.825
 3.66 5.00 -2.039 -2.039 -2.038 -2.036 -2.034 11.53110 17.20222 -6.47198   2.051
 3.66 5.20 -1.943 -1.942 -1.941 -1.940 -1.938 11.63299 17.40366 -6.27054   2.306
 3.66 5.40 -1.847 -1.847 -1.846 -1.845 -1.842 11.73488 17.60590 -6.06835   2.593
 3.66 5.60 -1.754 -1.753 -1.753 -1.751 -1.749 11.83675 17.80915 -5.86514   2.916
 3.66 5.80 -1.664 -1.663 -1.663 -1.661 -1.659 11.93853 18.01422 -5.66005   3.279
 3.66 6.00 -1.579 -1.579 -1.578 -1.577 -1.575 12.04021 18.22116 -5.45309   3.687
 3.66 6.25 -1.485 -1.484 -1.484 -1.482 -1.480 12.16660 18.48464 -5.18974   4.264
 3.66 6.50 -1.405 -1.405 -1.404 -1.403 -1.400 12.29270 18.75259 -4.92191   4.929
 3.66 6.75 -1.343 -1.343 -1.342 -1.340 -1.338 12.41851 19.02668 -4.64761   5.697
 3.66 7.00 -1.296 -1.296 -1.295 -1.293 -1.290 12.54432 19.30211 -4.37212   6.585
 3.66 7.25 -1.261 -1.261 -1.260 -1.258 -1.255 12.67308 19.57845 -4.09586   7.637
 3.66 7.50 -1.233 -1.232 -1.231 -1.229 -1.226 12.80407 19.85479 -3.81959   8.881
 3.66 7.75 -1.208 -1.208 -1.207 -1.205 -1.202 12.93766 20.12691 -3.54747  10.358
 3.66 8.00 -1.186 -1.185 -1.185 -1.182 -1.179 13.07372 20.39620 -3.27811  12.116
 3.68-2.00 -2.280 -2.280 -2.280 -2.279 -2.279  8.35603 10.17348-13.50100   0.052
 3.68-1.50 -2.510 -2.510 -2.509 -2.509 -2.508  8.60906 10.67614-12.99827   0.069
 3.68-1.00 -2.730 -2.730 -2.730 -2.729 -2.728  8.86082 11.17783-12.49648   0.093
 3.68-0.50 -2.935 -2.935 -2.934 -2.934 -2.933  9.11193 11.67870-11.99568   0.124
 3.68 0.00 -3.111 -3.111 -3.111 -3.111 -3.110  9.36229 12.17927-11.49512   0.165
 3.68 0.50 -3.235 -3.235 -3.235 -3.234 -3.234  9.61268 12.67952-10.99482   0.220
 3.68 1.00 -3.275 -3.275 -3.275 -3.274 -3.273  9.86291 13.17984-10.49458   0.294
 3.68 1.25 -3.259 -3.258 -3.258 -3.258 -3.257  9.98792 13.42982-10.24447   0.340
 3.68 1.50 -3.219 -3.219 -3.219 -3.218 -3.217 10.11294 13.67979 -9.99439   0.392
 3.68 1.75 -3.160 -3.159 -3.159 -3.158 -3.157 10.23809 13.92982 -9.74442   0.452
 3.68 2.00 -3.084 -3.083 -3.083 -3.082 -3.081 10.36324 14.17984 -9.49444   0.522
 3.68 2.25 -2.995 -2.995 -2.994 -2.994 -2.993 10.48828 14.42986 -9.24442   0.603
 3.68 2.50 -2.898 -2.898 -2.897 -2.896 -2.895 10.61331 14.67988 -8.99439   0.697
 3.68 2.75 -2.794 -2.794 -2.793 -2.792 -2.791 10.73846 14.92986 -8.74442   0.805
 3.68 3.00 -2.686 -2.686 -2.685 -2.684 -2.683 10.86362 15.17984 -8.49444   0.929
 3.68 3.20 -2.597 -2.597 -2.597 -2.595 -2.594 10.96375 15.37984 -8.29443   1.043
 3.68 3.40 -2.507 -2.507 -2.506 -2.505 -2.503 11.06388 15.57986 -8.09441   1.170
 3.68 3.60 -2.416 -2.415 -2.415 -2.413 -2.411 11.16408 15.77993 -7.89438   1.314
 3.68 3.80 -2.323 -2.323 -2.322 -2.320 -2.318 11.26439 15.98003 -7.69435   1.475
 3.68 4.00 -2.229 -2.229 -2.228 -2.227 -2.224 11.36474 16.18013 -7.49431   1.655
 3.68 4.20 -2.135 -2.134 -2.134 -2.132 -2.130 11.46510 16.38021 -7.29421   1.858
 3.68 4.40 -2.039 -2.039 -2.038 -2.037 -2.034 11.56552 16.58029 -7.09406   2.086
 3.68 4.60 -1.944 -1.943 -1.942 -1.941 -1.938 11.66606 16.78044 -6.89384   2.342
 3.68 4.80 -1.847 -1.847 -1.846 -1.844 -1.842 11.76671 16.98077 -6.69347   2.629
 3.68 5.00 -1.750 -1.750 -1.749 -1.748 -1.745 11.86735 17.18127 -6.49295   2.952
 3.68 5.20 -1.653 -1.653 -1.652 -1.651 -1.648 11.96799 17.38212 -6.29216   3.315
 3.68 5.40 -1.557 -1.557 -1.556 -1.554 -1.552 12.06862 17.58345 -6.09092   3.722
 3.68 5.60 -1.462 -1.462 -1.461 -1.459 -1.457 12.16920 17.78543 -5.88901   4.179
 3.68 5.80 -1.369 -1.369 -1.368 -1.367 -1.364 12.26959 17.98863 -5.68578   4.691
 3.68 6.00 -1.279 -1.279 -1.279 -1.277 -1.275 12.36977 18.19312 -5.48122   5.264
 3.68 6.25 -1.177 -1.176 -1.176 -1.174 -1.172 12.49361 18.45216 -5.22210   6.071
 3.68 6.50 -1.086 -1.086 -1.085 -1.084 -1.081 12.61595 18.71517 -4.95900   6.989
 3.68 6.75 -1.013 -1.013 -1.012 -1.011 -1.008 12.73573 18.98436 -4.68990   8.022
 3.68 7.00 -0.959 -0.958 -0.958 -0.956 -0.953 12.85364 19.25720 -4.41714   9.188
 3.68 7.25 -0.923 -0.922 -0.922 -0.920 -0.917 12.96911 19.53399 -4.14037  10.495
 3.68 7.50 -0.901 -0.900 -0.900 -0.898 -0.895 13.08458 19.81077 -3.86360  11.987
 3.68 7.75 -0.889 -0.888 -0.887 -0.885 -0.882 13.20092 20.08537 -3.58901  13.705
 3.68 8.00 -0.881 -0.881 -0.880 -0.878 -0.874 13.31785 20.35851 -3.31587  15.680
 3.70-2.00 -1.945 -1.945 -1.945 -1.944 -1.943  8.67532 10.14551-13.52900   0.073
 3.70-1.50 -2.179 -2.179 -2.179 -2.178 -2.177  8.93207 10.65167-13.02273   0.098
 3.70-1.00 -2.406 -2.406 -2.405 -2.405 -2.404  9.18583 11.15534-12.51913   0.132
 3.70-0.50 -2.619 -2.619 -2.619 -2.618 -2.617  9.43807 11.65725-12.01714   0.176
 3.70 0.00 -2.807 -2.807 -2.807 -2.806 -2.805  9.68931 12.15836-11.51599   0.235
 3.70 0.50 -2.944 -2.943 -2.943 -2.943 -2.942  9.93997 12.65906-11.01534   0.314
 3.70 1.00 -2.995 -2.995 -2.994 -2.994 -2.993 10.19033 13.15957-10.51499   0.418
 3.70 1.25 -2.982 -2.982 -2.982 -2.981 -2.980 10.31547 13.40960-10.26486   0.483
 3.70 1.50 -2.945 -2.945 -2.944 -2.944 -2.943 10.44059 13.65963-10.01475   0.558
 3.70 1.75 -2.887 -2.886 -2.886 -2.885 -2.884 10.56571 13.90975 -9.76465   0.644
 3.70 2.00 -2.811 -2.811 -2.811 -2.810 -2.809 10.69082 14.15987 -9.51456   0.744
 3.70 2.25 -2.723 -2.723 -2.723 -2.722 -2.720 10.81587 14.40980 -9.26457   0.860
 3.70 2.50 -2.626 -2.626 -2.625 -2.624 -2.623 10.94092 14.65973 -9.01457   0.993
 3.70 2.75 -2.523 -2.522 -2.522 -2.521 -2.519 11.06604 14.90980 -8.76457   1.147
 3.70 3.00 -2.415 -2.414 -2.414 -2.412 -2.410 11.19117 15.15987 -8.51456   1.324
 3.70 3.20 -2.326 -2.325 -2.325 -2.323 -2.321 11.29126 15.35985 -8.31455   1.486
 3.70 3.40 -2.235 -2.235 -2.234 -2.233 -2.231 11.39134 15.55983 -8.11454   1.667
 3.70 3.60 -2.144 -2.143 -2.143 -2.141 -2.139 11.49144 15.75982 -7.91451   1.871
 3.70 3.80 -2.051 -2.051 -2.050 -2.048 -2.046 11.59156 15.95983 -7.71447   2.099
 3.70 4.00 -1.957 -1.957 -1.956 -1.954 -1.952 11.69170 16.15987 -7.51442   2.356
 3.70 4.20 -1.863 -1.862 -1.861 -1.860 -1.857 11.79186 16.35993 -7.31437   2.644
 3.70 4.40 -1.768 -1.767 -1.766 -1.764 -1.762 11.89205 16.56004 -7.11430   2.968
 3.70 4.60 -1.672 -1.671 -1.670 -1.668 -1.666 11.99229 16.76019 -6.91418   3.331
 3.70 4.80 -1.575 -1.575 -1.574 -1.572 -1.569 12.09256 16.96043 -6.71393   3.738
 3.70 5.00 -1.478 -1.478 -1.477 -1.475 -1.472 12.19285 17.16077 -6.51357   4.196
 3.70 5.20 -1.381 -1.381 -1.380 -1.378 -1.375 12.29314 17.36126 -6.31307   4.710
 3.70 5.40 -1.284 -1.284 -1.283 -1.281 -1.279 12.39343 17.56200 -6.11232   5.286
 3.70 5.60 -1.188 -1.187 -1.187 -1.185 -1.183 12.49364 17.76313 -5.91118   5.932
 3.70 5.80 -1.092 -1.092 -1.091 -1.090 -1.088 12.59356 17.96509 -5.70922   6.656
 3.70 6.00 -0.999 -0.999 -0.999 -0.997 -0.995 12.69320 18.16791 -5.50640   7.465
 3.70 6.25 -0.890 -0.889 -0.889 -0.888 -0.885 12.81679 18.42383 -5.25046   8.607
 3.70 6.50 -0.789 -0.789 -0.788 -0.787 -0.785 12.93902 18.68287 -4.99140   9.907
 3.70 6.75 -0.703 -0.703 -0.702 -0.701 -0.698 13.05853 18.94718 -4.72720  11.369
 3.70 7.00 -0.634 -0.634 -0.633 -0.632 -0.629 13.17522 19.21590 -4.45855  13.004
 3.70 7.25 -0.586 -0.586 -0.585 -0.584 -0.581 13.28797 19.49060 -4.18360  14.805
 3.70 7.50 -0.558 -0.557 -0.557 -0.555 -0.552 13.39777 19.76619 -3.90798  16.798
 3.70 7.75 -0.546 -0.545 -0.545 -0.543 -0.540 13.50514 20.04209 -3.63215  19.008
 3.70 8.00 -0.544 -0.544 -0.543 -0.541 -0.538 13.60991 20.31848 -3.35596  21.447
 3.73-2.00 -1.462 -1.462 -1.462 -1.461 -1.460  9.10585 10.08672-13.58754   0.116
 3.73-1.50 -1.697 -1.697 -1.697 -1.696 -1.695  9.37694 10.60487-13.06941   0.158
 3.73-1.00 -1.927 -1.927 -1.927 -1.926 -1.925  9.63879 11.11561-12.55862   0.214
 3.73-0.50 -2.147 -2.146 -2.146 -2.146 -2.144  9.89542 11.62180-12.05257   0.288
 3.73 0.00 -2.345 -2.345 -2.344 -2.344 -2.343 10.14922 12.12548-11.54898   0.386
 3.73 0.50 -2.498 -2.498 -2.498 -2.497 -2.496 10.40123 12.62726-11.04706   0.515
 3.73 1.00 -2.571 -2.571 -2.570 -2.569 -2.568 10.65254 13.12840-10.54592   0.688
 3.73 1.25 -2.568 -2.567 -2.567 -2.566 -2.565 10.77792 13.37881-10.29556   0.795
 3.73 1.50 -2.538 -2.538 -2.538 -2.537 -2.535 10.90320 13.62910-10.04528   0.918
 3.73 1.75 -2.486 -2.486 -2.485 -2.484 -2.482 11.02836 13.87924 -9.79503   1.060
 3.73 2.00 -2.415 -2.415 -2.414 -2.413 -2.411 11.15351 14.12937 -9.54485   1.225
 3.73 2.25 -2.330 -2.330 -2.329 -2.328 -2.326 11.27866 14.37950 -9.29480   1.415
 3.73 2.50 -2.235 -2.235 -2.234 -2.233 -2.231 11.40381 14.62961 -9.04475   1.634
 3.73 2.75 -2.133 -2.133 -2.132 -2.131 -2.129 11.52895 14.87965 -8.79465   1.887
 3.73 3.00 -2.027 -2.026 -2.026 -2.024 -2.022 11.65408 15.12969 -8.54455   2.180
 3.73 3.20 -1.939 -1.939 -1.938 -1.936 -1.934 11.75414 15.32973 -8.34455   2.446
 3.73 3.40 -1.850 -1.849 -1.849 -1.847 -1.844 11.85420 15.52979 -8.14455   2.745
 3.73 3.60 -1.759 -1.759 -1.758 -1.756 -1.754 11.95426 15.72986 -7.94452   3.080
 3.73 3.80 -1.667 -1.667 -1.666 -1.664 -1.662 12.05434 15.92993 -7.74446   3.456
 3.73 4.00 -1.575 -1.574 -1.573 -1.571 -1.569 12.15442 16.13001 -7.54439   3.878
 3.73 4.20 -1.481 -1.481 -1.480 -1.478 -1.475 12.25451 16.33002 -7.34438   4.352
 3.73 4.40 -1.387 -1.386 -1.385 -1.383 -1.380 12.35461 16.53002 -7.14437   4.883
 3.73 4.60 -1.291 -1.291 -1.290 -1.288 -1.285 12.45474 16.73005 -6.94433   5.480
 3.73 4.80 -1.195 -1.195 -1.194 -1.192 -1.189 12.55489 16.93016 -6.74424   6.150
 3.73 5.00 -1.099 -1.098 -1.097 -1.096 -1.093 12.65504 17.13033 -6.54409   6.901
 3.73 5.20 -1.002 -1.001 -1.001 -0.999 -0.996 12.75515 17.33056 -6.34385   7.744
 3.73 5.40 -0.905 -0.904 -0.903 -0.902 -0.899 12.85520 17.53092 -6.14346   8.690
 3.73 5.60 -0.807 -0.807 -0.806 -0.805 -0.802 12.95518 17.73146 -5.94288   9.751
 3.73 5.80 -0.711 -0.710 -0.710 -0.708 -0.706 13.05503 17.93244 -5.74189  10.939
 3.73 6.00 -0.615 -0.614 -0.614 -0.613 -0.610 13.15473 18.13386 -5.54046  12.271
 3.73 6.25 -0.499 -0.498 -0.498 -0.497 -0.494 13.27888 18.38690 -5.28743  14.156
 3.73 6.50 -0.387 -0.387 -0.387 -0.385 -0.383 13.40226 18.64177 -5.03259  16.313
 3.73 6.75 -0.285 -0.285 -0.284 -0.283 -0.281 13.52372 18.90010 -4.77430  18.762
 3.73 7.00 -0.196 -0.196 -0.195 -0.194 -0.192 13.64286 19.16227 -4.51216  21.522
 3.73 7.25 -0.124 -0.124 -0.124 -0.122 -0.120 13.75821 19.43032 -4.24394  24.578
 3.73 7.50 -0.073 -0.073 -0.073 -0.071 -0.069 13.86958 19.70234 -3.97184  27.940
 3.73 7.75 -0.044 -0.044 -0.044 -0.042 -0.040 13.97598 19.97738 -3.69688  31.581
 3.73 8.00 -0.034 -0.034 -0.033 -0.032 -0.029 14.07773 20.25575 -3.41873  35.506
 3.76-2.00 -1.023 -1.023 -1.023 -1.022 -1.021  9.44963  9.98994-13.68445   0.166
 3.76-1.50 -1.242 -1.242 -1.241 -1.241 -1.240  9.75899 10.53224-13.14213   0.238
 3.76-1.00 -1.464 -1.464 -1.464 -1.463 -1.462 10.04297 11.05994-12.61421   0.330
 3.76-0.50 -1.680 -1.680 -1.680 -1.679 -1.678 10.31239 11.57692-12.09745   0.449
 3.76 0.00 -1.879 -1.879 -1.878 -1.878 -1.876 10.57334 12.08672-11.58754   0.607
 3.76 0.50 -2.040 -2.040 -2.039 -2.039 -2.037 10.82943 12.59251-11.08192   0.815
 3.76 1.00 -2.130 -2.130 -2.129 -2.129 -2.127 11.08279 13.09587-10.57856   1.091
 3.76 1.25 -2.138 -2.138 -2.138 -2.137 -2.135 11.20895 13.34676-10.32756   1.261
 3.76 1.50 -2.120 -2.120 -2.120 -2.119 -2.117 11.33486 13.59748-10.07681   1.458
 3.76 1.75 -2.078 -2.078 -2.077 -2.076 -2.075 11.46053 13.84813 -9.82622   1.685
 3.76 2.00 -2.016 -2.016 -2.015 -2.014 -2.013 11.58602 14.09864 -9.57577   1.947
 3.76 2.25 -1.938 -1.938 -1.937 -1.936 -1.935 11.71137 14.34893 -9.32546   2.250
 3.76 2.50 -1.849 -1.849 -1.848 -1.847 -1.845 11.83664 14.59912 -9.07520   2.599
 3.76 2.75 -1.753 -1.752 -1.752 -1.750 -1.748 11.96188 14.84923 -8.82497   3.002
 3.76 3.00 -1.651 -1.650 -1.650 -1.648 -1.646 12.08707 15.09934 -8.57479   3.467
 3.76 3.20 -1.566 -1.566 -1.565 -1.564 -1.561 12.18715 15.29947 -8.37475   3.891
 3.76 3.40 -1.480 -1.480 -1.479 -1.477 -1.475 12.28722 15.49960 -8.17471   4.366
 3.76 3.60 -1.393 -1.392 -1.391 -1.390 -1.387 12.38733 15.69967 -7.97464   4.899
 3.76 3.80 -1.304 -1.303 -1.302 -1.301 -1.298 12.48746 15.89968 -7.77455   5.498
 3.76 4.00 -1.214 -1.213 -1.212 -1.211 -1.208 12.58760 16.09968 -7.57447   6.169
 3.76 4.20 -1.123 -1.122 -1.121 -1.120 -1.117 12.68770 16.29976 -7.37447   6.923
 3.76 4.40 -1.031 -1.030 -1.029 -1.027 -1.025 12.78779 16.49984 -7.17448   7.768
 3.76 4.60 -0.938 -0.937 -0.936 -0.934 -0.932 12.88790 16.69991 -6.97446   8.717
 3.76 4.80 -0.844 -0.843 -0.842 -0.840 -0.838 12.98802 16.89997 -6.77440   9.782
 3.76 5.00 -0.749 -0.748 -0.747 -0.746 -0.743 13.08814 17.10003 -6.57430  10.977
 3.76 5.20 -0.653 -0.652 -0.652 -0.650 -0.647 13.18820 17.30017 -6.37418  12.318
 3.76 5.40 -0.557 -0.556 -0.555 -0.554 -0.551 13.28824 17.50040 -6.17399  13.822
 3.76 5.60 -0.460 -0.460 -0.459 -0.457 -0.455 13.38828 17.70069 -5.97370  15.510
 3.76 5.80 -0.363 -0.363 -0.362 -0.361 -0.358 13.48829 17.90113 -5.77322  17.403
 3.76 6.00 -0.266 -0.266 -0.265 -0.264 -0.262 13.58827 18.10175 -5.57251  19.525
 3.76 6.25 -0.147 -0.147 -0.146 -0.145 -0.143 13.71291 18.35332 -5.32096  22.537
 3.76 6.50 -0.030 -0.030 -0.030 -0.028 -0.027 13.83708 18.60595 -5.06839  26.000
 3.76 6.75  0.081  0.081  0.081  0.082  0.084 13.96026 18.86051 -4.81384  29.961
 3.76 7.00  0.185  0.185  0.185  0.186  0.188 14.08207 19.11760 -4.55674  34.472
 3.76 7.25  0.276  0.277  0.277  0.278  0.280 14.20124 19.37928 -4.29509  39.540
 3.76 7.50  0.351  0.352  0.352  0.353  0.355 14.31723 19.64532 -4.02905  45.187
 3.76 7.75  0.405  0.405  0.406  0.407  0.409 14.42802 19.91640 -3.75795  51.337
 3.76 8.00  0.437  0.437  0.438  0.439  0.441 14.53428 20.19229 -3.48201  58.024
 3.79-2.00 -0.699 -0.699 -0.699 -0.698 -0.697  9.64856  9.86303-13.81135   0.202
 3.79-1.50 -0.850 -0.850 -0.849 -0.849 -0.847 10.03623 10.41963-13.25477   0.316
 3.79-1.00 -1.036 -1.036 -1.036 -1.035 -1.034 10.37346 10.97234-12.70202   0.466
 3.79-0.50 -1.232 -1.232 -1.232 -1.231 -1.230 10.67505 11.51068-12.16368   0.659
 3.79 0.00 -1.418 -1.418 -1.417 -1.417 -1.415 10.95453 12.03543-11.63903   0.909
 3.79 0.50 -1.573 -1.573 -1.573 -1.572 -1.571 11.22115 12.54998-11.12442   1.236
 3.79 1.00 -1.670 -1.670 -1.669 -1.669 -1.668 11.48058 13.05843-10.61583   1.666
 3.79 1.25 -1.687 -1.687 -1.687 -1.686 -1.685 11.60862 13.31129-10.36305   1.931
 3.79 1.50 -1.681 -1.681 -1.681 -1.680 -1.679 11.73592 13.56348-10.11092   2.236
 3.79 1.75 -1.652 -1.652 -1.651 -1.651 -1.650 11.86264 13.81511 -9.85926   2.587
 3.79 2.00 -1.603 -1.602 -1.602 -1.601 -1.600 11.98896 14.06633 -9.60801   2.992
 3.79 2.25 -1.536 -1.536 -1.536 -1.535 -1.533 12.11500 14.31717 -9.35717   3.459
 3.79 2.50 -1.458 -1.458 -1.457 -1.456 -1.454 12.24080 14.56785 -9.10651   3.997
 3.79 2.75 -1.370 -1.370 -1.369 -1.368 -1.366 12.36636 14.81846 -8.85596   4.619
 3.79 3.00 -1.276 -1.276 -1.275 -1.274 -1.272 12.49178 15.06893 -8.60555   5.337
 3.79 3.20 -1.197 -1.197 -1.196 -1.195 -1.193 12.59201 15.26906 -8.40536   5.990
 3.79 3.40 -1.117 -1.116 -1.116 -1.114 -1.112 12.69223 15.46919 -8.20520   6.723
 3.79 3.60 -1.034 -1.034 -1.033 -1.032 -1.029 12.79244 15.66934 -8.00506   7.545
 3.79 3.80 -0.950 -0.950 -0.949 -0.948 -0.945 12.89265 15.86950 -7.80495   8.468
 3.79 4.00 -0.865 -0.865 -0.864 -0.862 -0.860 12.99286 16.06967 -7.60485   9.503
 3.79 4.20 -0.778 -0.778 -0.777 -0.776 -0.773 13.09305 16.26969 -7.40478  10.664
 3.79 4.40 -0.691 -0.690 -0.689 -0.688 -0.685 13.19321 16.46971 -7.20472  11.968
 3.79 4.60 -0.602 -0.601 -0.600 -0.599 -0.596 13.29335 16.66979 -7.00465  13.430
 3.79 4.80 -0.511 -0.511 -0.510 -0.508 -0.506 13.39347 16.86991 -6.80458  15.072
 3.79 5.00 -0.420 -0.419 -0.418 -0.417 -0.414 13.49360 17.07004 -6.60450  16.914
 3.79 5.20 -0.327 -0.326 -0.326 -0.324 -0.322 13.59375 17.27005 -6.40441  18.981
 3.79 5.40 -0.233 -0.232 -0.232 -0.230 -0.228 13.69390 17.47007 -6.20431  21.300
 3.79 5.60 -0.138 -0.138 -0.137 -0.136 -0.134 13.79405 17.67014 -6.00415  23.903
 3.79 5.80 -0.042 -0.042 -0.042 -0.040 -0.039 13.89419 17.87039 -5.80386  26.824
 3.79 6.00  0.053  0.053  0.053  0.054  0.056 13.99432 18.07078 -5.60345  30.101
 3.79 6.25  0.172  0.172  0.173  0.174  0.175 14.11929 18.32161 -5.35266  34.759
 3.79 6.50  0.291  0.291  0.292  0.293  0.294 14.24403 18.57299 -5.10139  40.128
 3.79 6.75  0.408  0.408  0.408  0.409  0.411 14.36833 18.82536 -4.84896  46.300
 3.79 7.00  0.521  0.521  0.521  0.522  0.523 14.49192 19.07918 -4.59500  53.376
 3.79 7.25  0.626  0.626  0.626  0.627  0.628 14.61386 19.33600 -4.33824  61.422
 3.79 7.50  0.720  0.720  0.720  0.721  0.722 14.73368 19.59627 -4.07811  70.513
 3.79 7.75  0.797  0.797  0.798  0.798  0.800 14.84946 19.86190 -3.81250  80.569
 3.79 8.00  0.854  0.855  0.855  0.856  0.857 14.96185 20.13226 -3.54212  91.697
 3.82-2.00 -0.566 -0.566 -0.565 -0.565 -0.563  9.69810  9.77612-13.89825   0.207
 3.82-1.50 -0.611 -0.611 -0.610 -0.609 -0.608 10.16227 10.30406-13.37039   0.353
 3.82-1.00 -0.701 -0.701 -0.701 -0.700 -0.699 10.58365 10.85297-12.82131   0.573
 3.82-0.50 -0.834 -0.834 -0.833 -0.833 -0.831 10.95168 11.41027-12.26416   0.875
 3.82 0.00 -0.981 -0.981 -0.980 -0.980 -0.979 11.27416 11.95818-11.71625   1.269
 3.82 0.50 -1.112 -1.112 -1.112 -1.111 -1.110 11.56620 12.49108-11.18330   1.776
 3.82 1.00 -1.200 -1.200 -1.200 -1.199 -1.198 11.84023 13.01157-10.66274   2.435
 3.82 1.25 -1.220 -1.220 -1.220 -1.219 -1.218 11.97297 13.26838-10.40594   2.837
 3.82 1.50 -1.222 -1.222 -1.222 -1.221 -1.220 12.10380 13.52362-10.15070   3.298
 3.82 1.75 -1.204 -1.204 -1.204 -1.203 -1.202 12.23309 13.77757 -9.89666   3.828
 3.82 2.00 -1.169 -1.168 -1.168 -1.167 -1.166 12.36135 14.03060 -9.64359   4.437
 3.82 2.25 -1.117 -1.117 -1.116 -1.116 -1.115 12.48883 14.28290 -9.39140   5.139
 3.82 2.50 -1.052 -1.052 -1.052 -1.051 -1.050 12.61574 14.53466 -9.13972   5.947
 3.82 2.75 -0.977 -0.977 -0.976 -0.976 -0.974 12.74221 14.78602 -8.88836   6.879
 3.82 3.00 -0.894 -0.894 -0.894 -0.893 -0.892 12.86835 15.03703 -8.63733   7.954
 3.82 3.20 -0.824 -0.824 -0.824 -0.823 -0.821 12.96907 15.23756 -8.43677   8.931
 3.82 3.40 -0.751 -0.751 -0.750 -0.749 -0.748 13.06966 15.43801 -8.23632  10.028
 3.82 3.60 -0.676 -0.676 -0.675 -0.674 -0.672 13.17014 15.63839 -8.03598  11.258
 3.82 3.80 -0.599 -0.598 -0.598 -0.597 -0.595 13.27054 15.83874 -7.83569  12.637
 3.82 4.00 -0.520 -0.520 -0.519 -0.518 -0.516 13.37088 16.03902 -7.63545  14.185
 3.82 4.20 -0.440 -0.439 -0.439 -0.437 -0.435 13.47118 16.23914 -7.43526  15.922
 3.82 4.40 -0.358 -0.358 -0.357 -0.356 -0.354 13.57146 16.43927 -7.23509  17.870
 3.82 4.60 -0.274 -0.274 -0.274 -0.272 -0.270 13.67172 16.63943 -7.03494  20.057
 3.82 4.80 -0.190 -0.189 -0.189 -0.187 -0.185 13.77197 16.83962 -6.83481  22.511
 3.82 5.00 -0.103 -0.103 -0.102 -0.101 -0.099 13.87221 17.03981 -6.63470  25.265
 3.82 5.20 -0.015 -0.015 -0.014 -0.013 -0.011 13.97248 17.23982 -6.43461  28.356
 3.82 5.40  0.074  0.074  0.075  0.076  0.078 14.07274 17.43983 -6.23453  31.825
 3.82 5.60  0.165  0.165  0.166  0.167  0.168 14.17300 17.63987 -6.03443  35.719
 3.82 5.80  0.257  0.258  0.258  0.259  0.261 14.27324 17.84000 -5.83430  40.090
 3.82 6.00  0.351  0.351  0.351  0.352  0.354 14.37346 18.04021 -5.63414  44.995
 3.82 6.25  0.469  0.469  0.469  0.470  0.471 14.49874 18.29063 -5.38372  51.976
 3.82 6.50  0.587  0.587  0.587  0.588  0.589 14.62397 18.54133 -5.13300  60.034
 3.82 6.75  0.705  0.705  0.705  0.706  0.707 14.74894 18.79254 -4.88174  69.324
 3.82 7.00  0.821  0.822  0.822  0.823  0.824 14.87356 19.04454 -4.62967  80.019
 3.82 7.25  0.934  0.935  0.935  0.935  0.937 14.99733 19.29824 -4.37601  92.273
 3.82 7.50  1.041  1.041  1.042  1.042  1.043 15.11992 19.55413 -4.12022 106.257
 3.82 7.75  1.137  1.137  1.137  1.138  1.139 15.23968 19.81418 -3.86015 121.968
 3.82 8.00  1.218  1.218  1.218  1.219  1.220 15.35717 20.07773 -3.59654 139.637
 3.85-2.00 -0.539 -0.539 -0.538 -0.538 -0.536  9.68458  9.73199-13.94233   0.197
 3.85-1.50 -0.538 -0.538 -0.537 -0.536 -0.535 10.17696 10.23855-13.43581   0.347
 3.85-1.00 -0.541 -0.541 -0.541 -0.540 -0.538 10.65533 10.75656-12.91793   0.601
 3.85-0.50 -0.564 -0.564 -0.564 -0.563 -0.561 11.10209 11.29469-12.37976   1.006
 3.85 0.00 -0.619 -0.619 -0.619 -0.618 -0.617 11.49859 11.85003-11.82449   1.588
 3.85 0.50 -0.689 -0.689 -0.689 -0.688 -0.687 11.84354 12.40449-11.26995   2.362
 3.85 1.00 -0.743 -0.743 -0.742 -0.742 -0.741 12.15014 12.94542-10.72886   3.361
 3.85 1.25 -0.756 -0.755 -0.755 -0.755 -0.754 12.29353 13.21015-10.46410   3.964
 3.85 1.50 -0.756 -0.756 -0.755 -0.755 -0.754 12.43249 13.47188-10.20239   4.652
 3.85 1.75 -0.743 -0.743 -0.743 -0.742 -0.741 12.56795 13.73099 -9.94335   5.437
 3.85 2.00 -0.717 -0.717 -0.716 -0.716 -0.715 12.70088 13.98807 -9.68634   6.337
 3.85 2.25 -0.678 -0.678 -0.677 -0.677 -0.676 12.83183 14.24339 -9.43102   7.368
 3.85 2.50 -0.628 -0.627 -0.627 -0.627 -0.626 12.96133 14.49748 -9.17692   8.553
 3.85 2.75 -0.567 -0.567 -0.567 -0.566 -0.565 13.08965 14.75065 -8.92378   9.915
 3.85 3.00 -0.499 -0.499 -0.499 -0.498 -0.497 13.21722 15.00303 -8.67142  11.484
 3.85 3.20 -0.440 -0.440 -0.439 -0.439 -0.437 13.31889 15.20440 -8.47003  12.909
 3.85 3.40 -0.377 -0.377 -0.376 -0.376 -0.374 13.42027 15.40550 -8.26891  14.506
 3.85 3.60 -0.311 -0.311 -0.310 -0.309 -0.308 13.52135 15.60640 -8.06804  16.297
 3.85 3.80 -0.242 -0.242 -0.242 -0.241 -0.240 13.62223 15.80715 -7.86733  18.305
 3.85 4.00 -0.172 -0.172 -0.171 -0.170 -0.169 13.72296 16.00775 -7.66675  20.556
 3.85 4.20 -0.099 -0.099 -0.099 -0.098 -0.096 13.82360 16.20819 -7.46627  23.080
 3.85 4.40 -0.025 -0.025 -0.024 -0.023 -0.022 13.92416 16.40854 -7.26587  25.913
 3.85 4.60  0.050  0.050  0.051  0.052  0.053 14.02467 16.60874 -7.06557  29.091
 3.85 4.80  0.128  0.128  0.128  0.129  0.131 14.12514 16.80888 -6.86533  32.658
 3.85 5.00  0.207  0.208  0.208  0.209  0.211 14.22557 17.00903 -6.66514  36.661
 3.85 5.20  0.289  0.289  0.290  0.291  0.292 14.32596 17.20926 -6.46501  41.154
 3.85 5.40  0.373  0.373  0.373  0.374  0.376 14.42635 17.40949 -6.26488  46.197
 3.85 5.60  0.458  0.458  0.459  0.460  0.461 14.52676 17.60966 -6.06472  51.859
 3.85 5.80  0.546  0.546  0.546  0.547  0.548 14.62719 17.80977 -5.86453  58.216
 3.85 6.00  0.635  0.635  0.635  0.636  0.637 14.72762 18.00988 -5.66434  65.352
 3.85 6.25  0.748  0.748  0.749  0.749  0.751 14.85318 18.26015 -5.41410  75.514
 3.85 6.50  0.864  0.864  0.864  0.865  0.866 14.97873 18.51055 -5.16387  87.256
 3.85 6.75  0.980  0.980  0.980  0.981  0.982 15.10424 18.76111 -4.91322 100.816
 3.85 7.00  1.097  1.097  1.097  1.098  1.099 15.22968 19.01199 -4.66214 116.469
 3.85 7.25  1.213  1.213  1.214  1.214  1.215 15.35455 19.26385 -4.41035 134.484
 3.85 7.50  1.327  1.327  1.327  1.328  1.328 15.47871 19.51693 -4.15745 155.174
 3.85 7.75  1.434  1.435  1.435  1.435  1.436 15.60128 19.77252 -3.90188 178.692
 3.85 8.00  1.533  1.533  1.534  1.534  1.535 15.72255 20.03020 -3.64417 205.452
 3.88-2.00 -0.536 -0.536 -0.536 -0.535 -0.534  9.65744  9.69932-13.97511   0.184
 3.88-1.50 -0.528 -0.528 -0.528 -0.527 -0.525 10.15594 10.20058-13.47379   0.327
 3.88-1.00 -0.508 -0.508 -0.507 -0.506 -0.504 10.65138 10.70475-12.96940   0.578
 3.88-0.50 -0.469 -0.469 -0.469 -0.467 -0.466 11.13767 11.21643-12.45780   1.012
 3.88 0.00 -0.418 -0.418 -0.417 -0.416 -0.415 11.60097 11.74492-11.92959   1.725
 3.88 0.50 -0.375 -0.375 -0.374 -0.374 -0.373 12.02119 12.29425-11.38007   2.799
 3.88 1.00 -0.346 -0.346 -0.346 -0.345 -0.344 12.38810 12.85150-10.82275   4.270
 3.88 1.25 -0.332 -0.332 -0.332 -0.331 -0.331 12.55346 13.12671-10.54755   5.165
 3.88 1.50 -0.315 -0.315 -0.314 -0.314 -0.313 12.70978 13.39898-10.27532   6.184
 3.88 1.75 -0.293 -0.293 -0.293 -0.292 -0.292 12.85831 13.66702-10.00738   7.339
 3.88 2.00 -0.265 -0.265 -0.265 -0.265 -0.264 13.00130 13.93166 -9.74280   8.653
 3.88 2.25 -0.232 -0.231 -0.231 -0.231 -0.230 13.13995 14.19295 -9.48142  10.148
 3.88 2.50 -0.191 -0.190 -0.190 -0.190 -0.189 13.27531 14.45179 -9.22250  11.858
 3.88 2.75 -0.143 -0.143 -0.143 -0.142 -0.141 13.40800 14.70863 -8.96565  13.816
 3.88 3.00 -0.089 -0.088 -0.088 -0.088 -0.087 13.53883 14.96388 -8.71041  16.063
 3.88 3.20 -0.041 -0.040 -0.040 -0.040 -0.039 13.64242 15.16705 -8.50726  18.098
 3.88 3.40  0.010  0.010  0.010  0.011  0.012 13.74535 15.36963 -8.30470  20.375
 3.88 3.60  0.065  0.065  0.065  0.066  0.067 13.84766 15.57169 -8.10266  22.923
 3.88 3.80  0.123  0.123  0.123  0.124  0.125 13.94958 15.77339 -7.90096  25.778
 3.88 4.00  0.183  0.184  0.184  0.185  0.186 14.05115 15.97474 -7.69962  28.976
 3.88 4.20  0.246  0.247  0.247  0.248  0.249 14.15244 16.17579 -7.49860  32.560
 3.88 4.40  0.312  0.312  0.312  0.313  0.314 14.25356 16.37663 -7.29777  36.580
 3.88 4.60  0.379  0.379  0.379  0.380  0.382 14.35453 16.57729 -7.09713  41.088
 3.88 4.80  0.448  0.448  0.449  0.450  0.451 14.45540 16.77784 -6.89659  46.146
 3.88 5.00  0.520  0.520  0.520  0.521  0.523 14.55618 16.97827 -6.69616  51.822
 3.88 5.20  0.593  0.594  0.594  0.595  0.596 14.65686 17.17861 -6.49581  58.191
 3.88 5.40  0.670  0.670  0.670  0.671  0.672 14.75754 17.37888 -6.29551  65.342
 3.88 5.60  0.748  0.748  0.748  0.749  0.750 14.85821 17.57910 -6.09526  73.371
 3.88 5.80  0.829  0.829  0.829  0.830  0.831 14.95889 17.77929 -5.89505  82.387
 3.88 6.00  0.912  0.912  0.912  0.913  0.914 15.05956 17.97946 -5.69486  92.510
 3.88 6.25  1.018  1.019  1.019  1.019  1.020 15.18544 18.22966 -5.44468 106.935
 3.88 6.50  1.128  1.128  1.129  1.129  1.130 15.31133 18.47986 -5.19450 123.612
 3.88 6.75  1.241  1.241  1.241  1.241  1.242 15.43723 18.73020 -4.94413 142.895
 3.88 7.00  1.355  1.355  1.355  1.356  1.356 15.56312 18.98069 -4.69358 165.187
 3.88 7.25  1.471  1.471  1.471  1.471  1.472 15.68884 19.23147 -4.44279 190.914
 3.88 7.50  1.587  1.587  1.587  1.587  1.588 15.81431 19.48273 -4.19159 220.579
 3.88 7.75  1.700  1.700  1.701  1.701  1.701 15.93881 19.73532 -3.93898 254.556
 3.88 8.00  1.811  1.811  1.811  1.811  1.811 16.06258 19.98896 -3.68529 293.509
 3.91-2.00 -0.538 -0.538 -0.537 -0.537 -0.536  9.62808  9.66876-14.00555   0.172
 3.91-1.50 -0.531 -0.531 -0.530 -0.530 -0.528 10.12775 10.16909-13.50529   0.306
 3.91-1.00 -0.512 -0.511 -0.511 -0.510 -0.508 10.62675 10.66997-13.00436   0.543
 3.91-0.50 -0.465 -0.465 -0.464 -0.463 -0.461 11.12353 11.17290-12.50155   0.962
 3.91 0.00 -0.375 -0.375 -0.374 -0.373 -0.371 11.61426 11.68106-11.99353   1.693
 3.91 0.50 -0.241 -0.240 -0.240 -0.239 -0.238 12.08778 12.20249-11.47198   2.920
 3.91 1.00 -0.089 -0.089 -0.089 -0.088 -0.087 12.52556 12.74484-10.92959   4.833
 3.91 1.25 -0.021 -0.020 -0.020 -0.020 -0.019 12.72476 13.02315-10.65122   6.079
 3.91 1.50  0.041  0.041  0.041  0.042  0.042 12.91126 13.30146-10.37284   7.535
 3.91 1.75  0.095  0.095  0.095  0.096  0.096 13.08455 13.57849-10.09580   9.198
 3.91 2.00  0.144  0.144  0.144  0.145  0.146 13.24748 13.85388 -9.82045  11.095
 3.91 2.25  0.189  0.189  0.189  0.190  0.190 13.40115 14.12452 -9.54980  13.243
 3.91 2.50  0.233  0.234  0.234  0.234  0.235 13.54814 14.39164 -9.28266  15.686
 3.91 2.75  0.278  0.278  0.278  0.279  0.279 13.68977 14.65518 -9.01914  18.464
 3.91 3.00  0.325  0.325  0.325  0.326  0.326 13.82743 14.91587 -8.75845  21.634
 3.91 3.20  0.364  0.365  0.365  0.365  0.366 13.93518 15.12250 -8.55180  24.492
 3.91 3.40  0.407  0.407  0.407  0.407  0.408 14.04150 15.32795 -8.34633  27.681
 3.91 3.60  0.451  0.451  0.452  0.452  0.453 14.14649 15.53231 -8.14202  31.237
 3.91 3.80  0.499  0.499  0.499  0.500  0.501 14.25061 15.73590 -7.93848  35.214
 3.91 4.00  0.549  0.549  0.549  0.550  0.551 14.35392 15.93877 -7.73565  39.661
 3.91 4.20  0.601  0.602  0.602  0.603  0.604 14.45654 16.14101 -7.53339  44.637
 3.91 4.40  0.657  0.657  0.657  0.658  0.659 14.55875 16.34282 -7.33154  50.213
 3.91 4.60  0.714  0.714  0.715  0.715  0.716 14.66058 16.54425 -7.13007  56.459
 3.91 4.80  0.774  0.774  0.775  0.775  0.776 14.76220 16.74543 -6.92886  63.465
 3.91 5.00  0.836  0.837  0.837  0.838  0.839 14.86362 16.94636 -6.72793  71.323
 3.91 5.20  0.901  0.901  0.902  0.902  0.903 14.96490 17.14709 -6.52727  80.136
 3.91 5.40  0.968  0.969  0.969  0.969  0.971 15.06607 17.34769 -6.32673  90.030
 3.91 5.60  1.038  1.038  1.039  1.039  1.040 15.16709 17.54815 -6.12630 101.137
 3.91 5.80  1.111  1.111  1.111  1.112  1.113 15.26806 17.74851 -5.92592 113.611
 3.91 6.00  1.186  1.186  1.187  1.187  1.188 15.36903 17.94880 -5.72561 127.623
 3.91 6.25  1.284  1.284  1.284  1.285  1.286 15.49529 18.19907 -5.47533 147.594
 3.91 6.50  1.386  1.386  1.386  1.387  1.387 15.62159 18.44933 -5.22505 170.693
 3.91 6.75  1.492  1.492  1.492  1.492  1.493 15.74801 18.69959 -4.97476 197.435
 3.91 7.00  1.601  1.601  1.601  1.602  1.602 15.87442 18.94988 -4.72446 228.367
 3.91 7.25  1.713  1.713  1.713  1.714  1.714 16.00080 19.20024 -4.47411 264.136
 3.91 7.50  1.827  1.827  1.828  1.828  1.828 16.12710 19.45071 -4.22366 305.490
 3.91 7.75  1.943  1.943  1.943  1.943  1.943 16.25286 19.70167 -3.97274 353.081
 3.91 8.00  2.058  2.058  2.058  2.058  2.058 16.37822 19.95299 -3.72147 407.894
 3.94-2.00 -0.539 -0.539 -0.539 -0.538 -0.538  9.59835  9.63839-14.03593   0.161
 3.94-1.50 -0.534 -0.534 -0.534 -0.533 -0.533 10.09795 10.13862-13.53566   0.285
 3.94-1.00 -0.520 -0.520 -0.520 -0.519 -0.518 10.59781 10.63889-13.03541   0.507
 3.94-0.50 -0.483 -0.482 -0.482 -0.481 -0.479 11.09691 11.13956-12.53477   0.901
 3.94 0.00 -0.398 -0.397 -0.397 -0.395 -0.393 11.59484 11.64167-12.03269   1.599
 3.94 0.50 -0.243 -0.242 -0.242 -0.241 -0.239 12.08778 12.14768-11.52651   2.820
 3.94 1.00 -0.017 -0.017 -0.017 -0.016 -0.015 12.56785 12.66455-11.00979   4.901
 3.94 1.25  0.109  0.109  0.109  0.110  0.111 12.79733 12.93034-10.74395   6.384
 3.94 1.50  0.235  0.235  0.235  0.236  0.237 13.01745 13.20085-10.47340   8.226
 3.94 1.75  0.349  0.349  0.350  0.350  0.351 13.22426 13.47809-10.19640  10.437
 3.94 2.00  0.450  0.450  0.450  0.450  0.451 13.41847 13.75549 -9.91901  13.051
 3.94 2.25  0.532  0.532  0.532  0.533  0.533 13.59844 14.03299 -9.64141  16.056
 3.94 2.50  0.602  0.602  0.603  0.603  0.604 13.76716 14.31048 -9.36381  19.498
 3.94 2.75  0.661  0.661  0.662  0.662  0.663 13.92551 14.58328 -9.09098  23.400
 3.94 3.00  0.715  0.715  0.715  0.715  0.716 14.07628 14.85266 -8.82160  27.837
 3.94 3.20  0.754  0.755  0.755  0.755  0.756 14.19228 15.06517 -8.60913  31.811
 3.94 3.40  0.794  0.794  0.794  0.795  0.795 14.30535 15.27570 -8.39864  36.231
 3.94 3.60  0.833  0.833  0.834  0.834  0.835 14.41560 15.48424 -8.19008  41.132
 3.94 3.80  0.874  0.874  0.874  0.874  0.875 14.52396 15.69129 -7.98300  46.597
 3.94 4.00  0.916  0.916  0.916  0.917  0.917 14.63063 15.89697 -7.77728  52.687
 3.94 4.20  0.960  0.960  0.960  0.960  0.961 14.73597 16.10148 -7.57279  59.481
 3.94 4.40  1.006  1.006  1.006  1.006  1.007 14.84039 16.30517 -7.36913  67.081
 3.94 4.60  1.054  1.054  1.054  1.055  1.056 14.94396 16.50810 -7.16624  75.577
 3.94 4.80  1.104  1.104  1.105  1.105  1.106 15.04698 16.71052 -6.96385  85.096
 3.94 5.00  1.157  1.157  1.158  1.158  1.159 15.14953 16.91243 -6.76195  95.760
 3.94 5.20  1.213  1.213  1.213  1.213  1.214 15.25168 17.11393 -6.56043 107.711
 3.94 5.40  1.271  1.271  1.271  1.271  1.272 15.35361 17.31514 -6.35920 121.122
 3.94 5.60  1.331  1.331  1.332  1.332  1.333 15.45532 17.51610 -6.15827 136.171
 3.94 5.80  1.395  1.395  1.395  1.396  1.397 15.55693 17.71689 -5.95755 153.071
 3.94 6.00  1.462  1.462  1.462  1.462  1.463 15.65849 17.91751 -5.75696 172.056
 3.94 6.25  1.549  1.549  1.549  1.550  1.550 15.78538 18.16804 -5.50635 199.117
 3.94 6.50  1.642  1.642  1.642  1.642  1.643 15.91228 18.41847 -5.25586 230.433
 3.94 6.75  1.739  1.739  1.739  1.739  1.740 16.03935 18.66886 -5.00553 266.708
 3.94 7.00  1.841  1.841  1.841  1.841  1.841 16.16643 18.91918 -4.75523 308.716
 3.94 7.25  1.946  1.947  1.947  1.947  1.947 16.29352 19.16940 -4.50496 357.377
 3.94 7.50  2.056  2.056  2.056  2.056  2.057 16.42062 19.41963 -4.25469 413.708
 3.94 7.75  2.169  2.169  2.169  2.169  2.169 16.54745 19.66997 -4.00436 478.778
 3.94 8.00  2.283  2.283  2.283  2.284  2.284 16.67413 19.92039 -3.75399 553.975
 3.97-2.00 -0.535 -0.535 -0.535 -0.535 -0.534  9.57019  9.60681-14.06753   0.150
 3.97-1.50 -0.535 -0.535 -0.535 -0.535 -0.534 10.06893 10.10789-13.56639   0.267
 3.97-1.00 -0.527 -0.527 -0.526 -0.526 -0.525 10.56820 10.60863-13.06575   0.474
 3.97-0.50 -0.500 -0.500 -0.500 -0.499 -0.498 11.06781 11.10890-12.56543   0.842
 3.97 0.00 -0.432 -0.432 -0.432 -0.431 -0.429 11.56714 11.60959-12.06474   1.496
 3.97 0.50 -0.293 -0.293 -0.292 -0.291 -0.289 12.06521 12.11126-11.56304   2.654
 3.97 1.00 -0.061 -0.061 -0.060 -0.059 -0.057 12.55955 12.61637-11.05799   4.690
 3.97 1.25  0.087  0.087  0.088  0.089  0.090 12.80318 12.87187-10.80253   6.209
 3.97 1.50  0.252  0.252  0.252  0.253  0.254 13.04297 13.13033-10.54409   8.183
 3.97 1.75  0.420  0.420  0.421  0.421  0.422 13.27594 13.39390-10.28048  10.700
 3.97 2.00  0.583  0.583  0.583  0.584  0.585 13.50065 13.66219-10.01216  13.858
 3.97 2.25  0.728  0.728  0.728  0.729  0.729 13.71264 13.93721 -9.73722  17.689
 3.97 2.50  0.852  0.852  0.852  0.853  0.854 13.91233 14.21405 -9.46042  22.263
 3.97 2.75  0.952  0.953  0.953  0.953  0.954 14.09762 14.49219 -9.18228  27.558
 3.97 3.00  1.036  1.036  1.036  1.036  1.037 14.27114 14.77034 -8.90413  33.652
 3.97 3.20  1.090  1.090  1.091  1.091  1.092 14.40169 14.98987 -8.68456  39.108
 3.97 3.40  1.139  1.139  1.140  1.140  1.140 14.52689 15.20736 -8.46702  45.171
 3.97 3.60  1.184  1.184  1.184  1.184  1.185 14.64689 15.42243 -8.25195  51.862
 3.97 3.80  1.225  1.225  1.225  1.226  1.226 14.76325 15.63506 -8.03937  59.295
 3.97 4.00  1.265  1.265  1.266  1.266  1.267 14.87633 15.84559 -7.82886  67.540
 3.97 4.20  1.305  1.305  1.305  1.306  1.306 14.98674 16.05413 -7.62028  76.699
 3.97 4.40  1.346  1.346  1.346  1.346  1.347 15.09531 16.26120 -7.41316  86.914
 3.97 4.60  1.387  1.387  1.387  1.388  1.389 15.20216 16.46684 -7.20748  98.291
 3.97 4.80  1.430  1.430  1.431  1.431  1.432 15.30790 16.67147 -7.00284 111.013
 3.97 5.00  1.476  1.476  1.476  1.476  1.477 15.41263 16.87518 -6.79915 125.236
 3.97 5.20  1.523  1.523  1.523  1.524  1.524 15.51654 17.07810 -6.59628 141.149
 3.97 5.40  1.573  1.573  1.573  1.573  1.574 15.61994 17.28049 -6.39393 158.990
 3.97 5.60  1.625  1.625  1.625  1.625  1.626 15.72283 17.48236 -6.19202 178.987
 3.97 5.80  1.680  1.680  1.680  1.680  1.681 15.82545 17.68391 -5.99042 201.437
 3.97 6.00  1.737  1.737  1.737  1.738  1.738 15.92789 17.88514 -5.78915 226.648
 3.97 6.25  1.814  1.814  1.814  1.814  1.815 16.05576 18.13632 -5.53803 262.564
 3.97 6.50  1.896  1.896  1.896  1.896  1.897 16.18356 18.38721 -5.28718 304.172
 3.97 6.75  1.983  1.983  1.983  1.984  1.984 16.31129 18.63786 -5.03648 352.383
 3.97 7.00  2.076  2.076  2.076  2.077  2.077 16.43902 18.88835 -4.78595 408.251
 3.97 7.25  2.174  2.174  2.175  2.175  2.175 16.56707 19.13870 -4.53561 473.075
 3.97 7.50  2.278  2.278  2.278  2.278  2.278 16.69513 19.38899 -4.28533 548.220
 3.97 7.75  2.385  2.385  2.385  2.385  2.385 16.82319 19.63925 -4.03509 635.316
 3.97 8.00  2.496  2.496  2.496  2.496  2.496 16.95124 19.88947 -3.78489 736.274
 4.00-2.00 -0.519 -0.519 -0.519 -0.518 -0.518  9.54937  9.56820-14.10613   0.142
 4.00-1.50 -0.527 -0.527 -0.527 -0.527 -0.527 10.04376 10.07335-13.60085   0.250
 4.00-1.00 -0.528 -0.528 -0.527 -0.527 -0.527 10.54033 10.57680-13.09762   0.443
 4.00-0.50 -0.512 -0.512 -0.512 -0.511 -0.511 11.03862 11.07809-12.59619   0.787
 4.00 0.00 -0.464 -0.463 -0.463 -0.463 -0.462 11.53795 11.57887-12.09545   1.398
 4.00 0.50 -0.351 -0.350 -0.350 -0.349 -0.348 12.03703 12.07954-11.59482   2.483
 4.00 1.00 -0.142 -0.142 -0.141 -0.140 -0.139 12.53555 12.58115-11.09323   4.407
 4.00 1.25  0.001  0.001  0.002  0.003  0.004 12.78371 12.83287-10.84157   5.864
 4.00 1.50  0.169  0.170  0.170  0.171  0.173 13.03060 13.08565-10.58889   7.792
 4.00 1.75  0.356  0.356  0.357  0.358  0.359 13.27506 13.34046-10.33405  10.325
 4.00 2.00  0.553  0.553  0.554  0.554  0.556 13.51614 13.59791-10.07650  13.630
 4.00 2.25  0.748  0.748  0.749  0.749  0.750 13.75095 13.86003 -9.81427  17.861
 4.00 2.50  0.932  0.932  0.933  0.933  0.934 13.97814 14.12678 -9.54745  23.200
 4.00 2.75  1.094  1.094  1.094  1.095  1.095 14.19340 14.40044 -9.27399  29.726
 4.00 3.00  1.232  1.232  1.232  1.233  1.233 14.39672 14.67669 -8.99783  37.568
 4.00 3.20  1.323  1.323  1.323  1.323  1.324 14.54875 14.89942 -8.77507  44.753
 4.00 3.40  1.400  1.400  1.400  1.400  1.401 14.69305 15.12214 -8.55231  52.839
 4.00 3.60  1.464  1.465  1.465  1.465  1.465 14.82937 15.34385 -8.33055  61.816
 4.00 3.80  1.520  1.520  1.520  1.520  1.520 14.95927 15.56311 -8.11123  71.787
 4.00 4.00  1.569  1.569  1.569  1.569  1.570 15.08350 15.78046 -7.89381  82.826
 4.00 4.20  1.612  1.612  1.612  1.613  1.613 15.20281 15.99483 -7.67945  95.026
 4.00 4.40  1.653  1.653  1.653  1.654  1.654 15.31867 16.20707 -7.46722 108.588
 4.00 4.60  1.693  1.693  1.693  1.693  1.694 15.43124 16.41716 -7.25713 123.611
 4.00 4.80  1.732  1.732  1.732  1.732  1.733 15.54163 16.62552 -7.04875 140.356
 4.00 5.00  1.772  1.772  1.772  1.772  1.773 15.65002 16.83232 -6.84194 159.005
 4.00 5.20  1.813  1.813  1.813  1.813  1.813 15.75676 17.03772 -6.63657 179.801
 4.00 5.40  1.855  1.855  1.855  1.856  1.856 15.86244 17.24215 -6.43216 203.067
 4.00 5.60  1.900  1.900  1.900  1.900  1.901 15.96709 17.44568 -6.22861 229.074
 4.00 5.80  1.947  1.947  1.947  1.947  1.948 16.07113 17.64859 -6.02567 258.227
 4.00 6.00  1.997  1.997  1.997  1.997  1.998 16.17464 17.85089 -5.82333 290.911
 4.00 6.25  2.064  2.064  2.064  2.064  2.064 16.30347 18.10303 -5.57120 337.410
 4.00 6.50  2.136  2.136  2.136  2.136  2.136 16.43201 18.35468 -5.31957 391.215
 4.00 6.75  2.213  2.213  2.213  2.213  2.214 16.56030 18.60601 -5.06828 453.486
 4.00 7.00  2.297  2.297  2.297  2.297  2.297 16.68860 18.85703 -4.81730 525.669
 4.00 7.25  2.387  2.387  2.387  2.387  2.387 16.81701 19.10777 -4.56666 609.422
 4.00 7.50  2.482  2.482  2.482  2.482  2.482 16.94557 19.35832 -4.31614 706.642
 4.00 7.75  2.583  2.583  2.583  2.583  2.583 17.07465 19.60874 -4.06569 819.816
 4.00 8.00  2.689  2.689  2.689  2.689  2.689 17.20412 19.85902 -3.81531 951.513
 4.05-2.00 -0.501 -0.501 -0.501 -0.501 -0.500  9.50826  9.50961-14.16482   0.128
 4.05-1.50 -0.502 -0.502 -0.502 -0.502 -0.501 10.00732 10.01072-13.66374   0.226
 4.05-1.00 -0.504 -0.504 -0.504 -0.504 -0.504 10.50420 10.51362-13.16077   0.401
 4.05-0.50 -0.505 -0.505 -0.505 -0.505 -0.505 10.99900 11.01870-12.65580   0.709
 4.05 0.00 -0.490 -0.490 -0.490 -0.490 -0.489 11.49346 11.52388-12.15052   1.254
 4.05 0.50 -0.430 -0.430 -0.430 -0.429 -0.428 11.98994 12.02694-11.64724   2.220
 4.05 1.00 -0.286 -0.286 -0.285 -0.285 -0.284 12.48827 12.52866-11.14569   3.941
 4.05 1.25 -0.172 -0.172 -0.172 -0.171 -0.170 12.73761 12.77923-10.89512   5.251
 4.05 1.50 -0.028 -0.028 -0.028 -0.027 -0.026 12.98695 13.02979-10.64455   6.997
 4.05 1.75  0.143  0.143  0.144  0.145  0.146 13.23598 13.28068-10.39366   9.320
 4.05 2.00  0.340  0.340  0.340  0.341  0.343 13.48458 13.53199-10.14237  12.408
 4.05 2.25  0.553  0.553  0.554  0.554  0.556 13.73202 13.78424 -9.89014  16.498
 4.05 2.50  0.775  0.775  0.776  0.776  0.778 13.97786 14.03783 -9.63658  21.895
 4.05 2.75  0.999  1.000  1.000  1.001  1.002 14.22059 14.29411 -9.38026  28.954
 4.05 3.00  1.218  1.218  1.219  1.219  1.220 14.45909 14.55364 -9.12068  38.102
 4.05 3.20  1.383  1.383  1.383  1.384  1.384 14.64444 14.76519 -8.90913  47.166
 4.05 3.40  1.535  1.535  1.536  1.536  1.536 14.82410 14.97974 -8.69459  58.005
 4.05 3.60  1.671  1.671  1.671  1.672  1.672 14.99684 15.19853 -8.47583  70.770
 4.05 3.80  1.789  1.789  1.789  1.790  1.790 15.16099 15.41972 -8.25466  85.493
 4.05 4.00  1.891  1.891  1.891  1.892  1.892 15.31723 15.64147 -8.03292 102.343
 4.05 4.20  1.975  1.975  1.975  1.975  1.975 15.46410 15.86358 -7.81083 121.193
 4.05 4.40  2.046  2.046  2.046  2.047  2.047 15.60371 16.08568 -7.58873 142.323
 4.05 4.60  2.107  2.107  2.107  2.107  2.108 15.73596 16.30640 -7.36805 165.728
 4.05 4.80  2.160  2.160  2.160  2.160  2.160 15.86253 16.52413 -7.15036 191.730
 4.05 5.00  2.207  2.207  2.208  2.208  2.208 15.98412 16.73973 -6.93479 220.542
 4.05 5.20  2.251  2.251  2.251  2.251  2.251 16.10153 16.95257 -6.72184 252.452
 4.05 5.40  2.293  2.293  2.293  2.293  2.293 16.21597 17.16343 -6.51088 287.997
 4.05 5.60  2.335  2.335  2.335  2.335  2.335 16.32755 17.37232 -6.30198 327.478
 4.05 5.80  2.377  2.377  2.377  2.377  2.377 16.43730 17.57970 -6.09466 371.589
 4.05 6.00  2.420  2.420  2.420  2.420  2.420 16.54543 17.78569 -5.88874 420.857
 4.05 6.25  2.476  2.476  2.476  2.476  2.476 16.67886 18.04153 -5.63289 490.731
 4.05 6.50  2.536  2.536  2.536  2.536  2.537 16.81104 18.29601 -5.37841 571.409
 4.05 6.75  2.601  2.601  2.601  2.601  2.601 16.94212 18.54938 -5.12511 664.609
 4.05 7.00  2.671  2.671  2.671  2.671  2.671 17.07298 18.80195 -4.87257 772.689
 4.05 7.25  2.747  2.747  2.747  2.747  2.747 17.20372 19.05389 -4.62059 898.062
 4.05 7.50  2.829  2.829  2.829  2.829  2.829 17.33445 19.30535 -4.369061043.776
 4.05 7.75  2.918  2.918  2.918  2.918  2.918 17.46548 19.55649 -4.117891213.740
 4.05 8.00  3.013  3.013  3.013  3.013  3.013 17.59671 19.80726 -3.867101411.850
 4.10-2.00 -0.499 -0.499 -0.499 -0.499 -0.498  9.45894  9.45894-14.21538   0.114
 4.10-1.50 -0.498 -0.498 -0.498 -0.498 -0.497  9.95876  9.95904-13.71534   0.202
 4.10-1.00 -0.497 -0.497 -0.496 -0.496 -0.496 10.45864 10.45924-13.21510   0.360
 4.10-0.50 -0.493 -0.493 -0.492 -0.492 -0.492 10.95794 10.95985-12.71444   0.639
 4.10 0.00 -0.481 -0.481 -0.481 -0.481 -0.480 11.45637 11.46150-12.21282   1.134
 4.10 0.50 -0.449 -0.449 -0.449 -0.449 -0.448 11.95250 11.96520-11.70908   2.008
 4.10 1.00 -0.368 -0.368 -0.367 -0.367 -0.366 12.44685 12.47071-11.20356   3.547
 4.10 1.25 -0.296 -0.295 -0.295 -0.295 -0.294 12.69414 12.72322-10.95103   4.715
 4.10 1.50 -0.196 -0.196 -0.196 -0.196 -0.195 12.94161 12.97548-10.69875   6.270
 4.10 1.75 -0.067 -0.067 -0.067 -0.066 -0.065 13.18993 13.22701-10.44724   8.345
 4.10 2.00  0.092  0.092  0.092  0.093  0.094 13.43854 13.47828-10.19600  11.110
 4.10 2.25  0.280  0.280  0.280  0.281  0.282 13.68743 13.72932 -9.94500  14.796
 4.10 2.50  0.490  0.491  0.491  0.492  0.493 13.93631 13.98037 -9.69401  19.705
 4.10 2.75  0.719  0.719  0.719  0.720  0.721 14.18467 14.23184 -9.44253  26.228
 4.10 3.00  0.957  0.957  0.957  0.958  0.959 14.43233 14.48387 -9.19044  34.883
 4.10 3.20  1.149  1.149  1.149  1.150  1.150 14.62926 14.68658 -8.98773  43.760
 4.10 3.40  1.340  1.340  1.340  1.341  1.341 14.82466 14.89057 -8.78377  54.799
 4.10 3.60  1.527  1.527  1.528  1.528  1.528 15.01806 15.09628 -8.57808  68.464
 4.10 3.80  1.708  1.708  1.708  1.708  1.709 15.20772 15.30471 -8.36967  85.169
 4.10 4.00  1.879  1.879  1.879  1.879  1.880 15.39357 15.51574 -8.15864 105.487
 4.10 4.20  2.034  2.034  2.034  2.034  2.035 15.57276 15.73105 -7.94328 129.655
 4.10 4.40  2.174  2.174  2.174  2.174  2.175 15.74511 15.94892 -7.72538 158.114
 4.10 4.60  2.295  2.295  2.295  2.296  2.296 15.90946 16.17005 -7.50423 191.058
 4.10 4.80  2.398  2.398  2.398  2.398  2.399 16.06502 16.39252 -7.28176 228.547
 4.10 5.00  2.487  2.487  2.487  2.487  2.487 16.21272 16.61500 -7.05928 270.921
 4.10 5.20  2.560  2.560  2.560  2.560  2.560 16.35208 16.83627 -6.83803 318.040
 4.10 5.40  2.624  2.624  2.624  2.624  2.624 16.48517 17.05629 -6.61803 370.676
 4.10 5.60  2.681  2.681  2.681  2.681  2.681 16.61200 17.27430 -6.40007 428.948
 4.10 5.80  2.732  2.732  2.732  2.732  2.732 16.73431 17.48955 -6.18486 493.825
 4.10 6.00  2.781  2.781  2.781  2.781  2.781 16.85266 17.70260 -5.97184 565.936
 4.10 6.25  2.840  2.840  2.840  2.840  2.840 16.99623 17.96556 -5.70879 667.634
 4.10 6.50  2.899  2.899  2.899  2.899  2.899 17.13640 18.22583 -5.44843 784.540
 4.10 6.75  2.959  2.959  2.959  2.959  2.959 17.27387 18.48387 -5.19031 919.066
 4.10 7.00  3.023  3.023  3.023  3.023  3.023 17.40977 18.74013 -4.934051074.712
 4.10 7.25  3.091  3.091  3.091  3.091  3.091 17.54429 18.99486 -4.679471254.722
 4.10 7.50  3.164  3.164  3.164  3.164  3.164 17.67861 19.24846 -4.425971464.564
 4.10 7.75  3.243  3.243  3.243  3.243  3.243 17.81286 19.50128 -4.173161709.382
 4.10 8.00  3.329  3.329  3.329  3.329  3.329 17.94699 19.75320 -3.921181994.888
 4.15-2.00 -0.499 -0.499 -0.499 -0.499 -0.499  9.40892  9.40892-14.26544   0.101
 4.15-1.50 -0.498 -0.498 -0.497 -0.497 -0.497  9.90886  9.90891-13.76548   0.180
 4.15-1.00 -0.495 -0.495 -0.495 -0.494 -0.494 10.40892 10.40909-13.26536   0.321
 4.15-0.50 -0.491 -0.491 -0.491 -0.491 -0.490 10.90875 10.90902-12.76523   0.570
 4.15 0.00 -0.483 -0.483 -0.483 -0.483 -0.482 11.40858 11.40926-12.26512   1.013
 4.15 0.50 -0.462 -0.462 -0.462 -0.461 -0.461 11.90816 11.90961-11.76472   1.801
 4.15 1.00 -0.407 -0.407 -0.406 -0.406 -0.405 12.40705 12.41078-11.26352   3.198
 4.15 1.25 -0.356 -0.356 -0.356 -0.356 -0.355 12.65584 12.66197-11.01235   4.259
 4.15 1.50 -0.286 -0.286 -0.286 -0.285 -0.284 12.90412 12.91366-10.76070   5.669
 4.15 1.75 -0.194 -0.194 -0.193 -0.193 -0.191 13.15159 13.16614-10.50820   7.538
 4.15 2.00 -0.077 -0.077 -0.077 -0.076 -0.075 13.39881 13.41880-10.25555  10.020
 4.15 2.25  0.064  0.065  0.065  0.065  0.067 13.64584 13.67157-10.00281  13.316
 4.15 2.50  0.233  0.233  0.234  0.234  0.236 13.89287 13.92433 -9.75007  17.696
 4.15 2.75  0.429  0.429  0.429  0.430  0.431 14.14069 14.17652 -9.49790  23.537
 4.15 3.00  0.647  0.648  0.648  0.648  0.650 14.38863 14.42846 -9.24596  31.312
 4.15 3.20  0.836  0.836  0.836  0.836  0.838 14.58705 14.62980 -9.04460  39.349
 4.15 3.40  1.031  1.031  1.032  1.032  1.033 14.78547 14.83114 -8.84324  49.450
 4.15 3.60  1.232  1.232  1.232  1.232  1.233 14.98365 15.03273 -8.64164  62.125
 4.15 3.80  1.434  1.434  1.434  1.435  1.435 15.18097 15.23511 -8.43925  77.971
 4.15 4.00  1.633  1.633  1.634  1.634  1.634 15.37749 15.43823 -8.23612  97.767
 4.15 4.20  1.830  1.830  1.830  1.830  1.830 15.57195 15.64300 -8.03136 122.297
 4.15 4.40  2.021  2.021  2.021  2.021  2.021 15.76382 15.84972 -7.82465 152.525
 4.15 4.60  2.203  2.203  2.203  2.203  2.203 15.95232 16.05911 -7.61526 189.487
 4.15 4.80  2.372  2.372  2.372  2.372  2.372 16.13530 16.27188 -7.40247 233.918
 4.15 5.00  2.528  2.528  2.528  2.528  2.528 16.31281 16.48756 -7.18675 286.957
 4.15 5.20  2.662  2.662  2.662  2.662  2.662 16.48190 16.70770 -6.96645 348.618
 4.15 5.40  2.781  2.781  2.781  2.781  2.781 16.64332 16.92864 -6.74546 419.817
 4.15 5.60  2.882  2.882  2.882  2.882  2.882 16.79625 17.15037 -6.52380 500.674
 4.15 5.80  2.968  2.968  2.968  2.968  2.968 16.94121 17.37227 -6.30199 591.665
 4.15 6.00  3.044  3.044  3.044  3.044  3.044 17.07918 17.59417 -6.08019 693.577
 4.15 6.25  3.125  3.125  3.125  3.125  3.125 17.24260 17.86721 -5.80716 837.114
 4.15 6.50  3.199  3.199  3.199  3.199  3.199 17.39863 18.13704 -5.537301001.789
 4.15 6.75  3.268  3.268  3.268  3.268  3.268 17.54847 18.40304 -5.271311190.343
 4.15 7.00  3.336  3.336  3.336  3.336  3.336 17.69417 18.66596 -5.008421407.705
 4.15 7.25  3.404  3.404  3.404  3.404  3.404 17.83645 18.92600 -4.748461658.301
 4.15 7.50  3.476  3.476  3.476  3.476  3.476 17.97708 19.18384 -4.490661949.731
 4.15 7.75  3.551  3.551  3.551  3.551  3.551 18.11686 19.44005 -4.234472290.052
 4.15 8.00  3.631  3.631  3.631  3.631  3.631 18.25551 19.69443 -3.980052686.224
 4.20-2.00 -0.500 -0.500 -0.500 -0.500 -0.500  9.35889  9.35889-14.31542   0.090
 4.20-1.50 -0.499 -0.499 -0.498 -0.498 -0.498  9.85884  9.85890-13.81531   0.161
 4.20-1.00 -0.495 -0.495 -0.495 -0.495 -0.495 10.35889 10.35889-13.31542   0.286
 4.20-0.50 -0.490 -0.490 -0.490 -0.490 -0.489 10.85878 10.85896-12.81531   0.508
 4.20 0.00 -0.483 -0.483 -0.483 -0.482 -0.482 11.35870 11.35908-12.31533   0.903
 4.20 0.50 -0.469 -0.469 -0.469 -0.469 -0.468 11.85866 11.85908-11.81531   1.606
 4.20 1.00 -0.436 -0.436 -0.436 -0.435 -0.434 12.35851 12.35927-11.31507   2.856
 4.20 1.25 -0.405 -0.405 -0.404 -0.404 -0.402 12.60836 12.60943-11.06492   3.807
 4.20 1.50 -0.358 -0.357 -0.357 -0.357 -0.355 12.85812 12.85968-10.81474   5.075
 4.20 1.75 -0.290 -0.290 -0.290 -0.289 -0.288 13.10767 13.11012-10.56431   6.764
 4.20 2.00 -0.200 -0.200 -0.200 -0.199 -0.197 13.35698 13.36078-10.31363   9.015
 4.20 2.25 -0.084 -0.084 -0.084 -0.083 -0.081 13.60594 13.61183-10.06258  12.007
 4.20 2.50  0.056  0.056  0.056  0.057  0.059 13.85443 13.86332 -9.81107  15.982
 4.20 2.75  0.221  0.221  0.222  0.222  0.224 14.10206 14.11562 -9.55878  21.255
 4.20 3.00  0.408  0.408  0.409  0.409  0.411 14.34928 14.36829 -9.30610  28.254
 4.20 3.20  0.573  0.573  0.573  0.574  0.575 14.54674 14.57070 -9.10365  35.465
 4.20 3.40  0.749  0.749  0.749  0.749  0.751 14.74419 14.77310 -8.90120  44.515
 4.20 3.60  0.935  0.935  0.935  0.935  0.937 14.94179 14.97534 -8.69894  55.886
 4.20 3.80  1.130  1.130  1.130  1.130  1.131 15.13953 15.17742 -8.49688  70.174
 4.20 4.00  1.331  1.331  1.331  1.331  1.332 15.33726 15.37949 -8.29482  88.115
 4.20 4.20  1.537  1.537  1.537  1.537  1.538 15.53479 15.58171 -8.09261 110.617
 4.20 4.40  1.745  1.745  1.745  1.745  1.746 15.73202 15.78416 -7.89018 138.817
 4.20 4.60  1.951  1.951  1.951  1.951  1.951 15.92858 15.98722 -7.68714 174.067
 4.20 4.80  2.153  2.153  2.153  2.153  2.154 16.12336 16.19179 -7.48259 217.814
 4.20 5.00  2.352  2.352  2.352  2.352  2.352 16.31639 16.39777 -7.27663 271.999
 4.20 5.20  2.540  2.540  2.540  2.540  2.540 16.50553 16.60659 -7.06774 338.183
 4.20 5.40  2.719  2.719  2.719  2.719  2.719 16.69026 16.81812 -6.85615 418.353
 4.20 5.60  2.882  2.882  2.882  2.882  2.882 16.86952 17.03331 -6.64095 514.277
 4.20 5.80  3.027  3.027  3.027  3.027  3.027 17.04140 17.25152 -6.42277 626.811
 4.20 6.00  3.156  3.156  3.156  3.156  3.156 17.20629 17.47159 -6.20273 757.839
 4.20 6.25  3.290  3.290  3.290  3.290  3.290 17.39997 17.74906 -5.92528 947.157
 4.20 6.50  3.406  3.406  3.406  3.406  3.406 17.58241 18.02653 -5.647821168.530
 4.20 6.75  3.502  3.502  3.502  3.502  3.502 17.75381 18.30122 -5.373131423.384
 4.20 7.00  3.590  3.590  3.590  3.590  3.590 17.91709 18.57334 -5.101001717.741
 4.20 7.25  3.671  3.671  3.671  3.671  3.671 18.07325 18.84136 -4.832982056.270
 4.20 7.50  3.750  3.750  3.750  3.750  3.750 18.22505 19.10619 -4.568152449.083
 4.20 7.75  3.828  3.828  3.828  3.828  3.828 18.37419 19.36820 -4.306142907.769
 4.20 8.00  3.909  3.909  3.909  3.909  3.909 18.52009 19.62726 -4.047063439.314
 4.25-2.00 -0.500 -0.500 -0.500 -0.500 -0.499  9.30899  9.30899-14.36542   0.081
 4.25-1.50 -0.499 -0.499 -0.499 -0.499 -0.498  9.80889  9.80889-13.86550   0.143
 4.25-1.00 -0.497 -0.497 -0.497 -0.497 -0.496 10.30878 10.30899-13.36542   0.255
 4.25-0.50 -0.492 -0.492 -0.492 -0.492 -0.491 10.80882 10.80895-12.86550   0.453
 4.25 0.00 -0.483 -0.483 -0.483 -0.483 -0.482 11.30878 11.30899-12.36532   0.805
 4.25 0.50 -0.470 -0.470 -0.470 -0.470 -0.469 11.80875 11.80902-11.86519   1.431
 4.25 1.00 -0.447 -0.447 -0.447 -0.447 -0.446 12.30878 12.30921-11.36522   2.545
 4.25 1.25 -0.428 -0.427 -0.427 -0.427 -0.426 12.55866 12.55921-11.11522   3.394
 4.25 1.50 -0.397 -0.397 -0.397 -0.396 -0.395 12.80855 12.80922-10.86519   4.526
 4.25 1.75 -0.353 -0.353 -0.353 -0.352 -0.350 13.05845 13.05929-10.61507   6.035
 4.25 2.00 -0.291 -0.291 -0.290 -0.290 -0.288 13.30835 13.30942-10.36492   8.046
 4.25 2.25 -0.206 -0.206 -0.206 -0.205 -0.203 13.55816 13.55961-10.11476  10.727
 4.25 2.50 -0.097 -0.097 -0.097 -0.096 -0.094 13.80787 13.80990 -9.86455  14.300
 4.25 2.75  0.039  0.039  0.040  0.041  0.043 14.05738 14.06038 -9.61403  19.059
 4.25 3.00  0.205  0.205  0.205  0.206  0.208 14.30664 14.31112 -9.36321  25.396
 4.25 3.20  0.356  0.357  0.357  0.358  0.360 14.50575 14.51200 -9.16232  31.938
 4.25 3.40  0.522  0.523  0.523  0.523  0.525 14.70453 14.71320 -8.96114  40.150
 4.25 3.60  0.699  0.700  0.700  0.700  0.702 14.90284 14.91486 -8.75951  50.448
 4.25 3.80  0.885  0.885  0.885  0.885  0.887 15.10068 15.11695 -8.55743  63.355
 4.25 4.00  1.076  1.076  1.076  1.076  1.077 15.29820 15.31931 -8.35507  79.535
 4.25 4.20  1.272  1.272  1.272  1.272  1.273 15.49547 15.52190 -8.15245  99.807
 4.25 4.40  1.472  1.472  1.472  1.473  1.473 15.69257 15.72461 -7.94973 125.225
 4.25 4.60  1.677  1.677  1.677  1.677  1.678 15.88958 15.92738 -7.74695 157.104
 4.25 4.80  1.885  1.885  1.885  1.886  1.886 16.08644 16.13024 -7.54410 197.077
 4.25 5.00  2.096  2.096  2.096  2.096  2.097 16.28308 16.33325 -7.34113 247.170
 4.25 5.20  2.306  2.306  2.306  2.306  2.307 16.47881 16.53699 -7.13741 309.645
 4.25 5.40  2.513  2.513  2.513  2.513  2.513 16.67332 16.74170 -6.93273 387.350
 4.25 5.60  2.714  2.714  2.714  2.714  2.714 16.86596 16.94795 -6.72648 483.516
 4.25 5.80  2.907  2.907  2.907  2.907  2.907 17.05494 17.15683 -6.51758 601.049
 4.25 6.00  3.091  3.091  3.091  3.091  3.091 17.24030 17.36810 -6.30627 744.056
 4.25 6.25  3.294  3.294  3.294  3.294  3.294 17.46316 17.63751 -6.03686 961.648
 4.25 6.50  3.476  3.476  3.476  3.476  3.476 17.67615 17.91041 -5.763971228.833
 4.25 6.75  3.626  3.626  3.626  3.626  3.626 17.87631 18.18715 -5.487231547.457
 4.25 7.00  3.758  3.758  3.758  3.758  3.758 18.06558 18.46390 -5.210491924.366
 4.25 7.25  3.869  3.869  3.869  3.869  3.869 18.24382 18.73906 -4.935402362.407
 4.25 7.50  3.970  3.970  3.970  3.970  3.970 18.41397 19.01241 -4.662142873.342
 4.25 7.75  4.063  4.063  4.063  4.063  4.063 18.57816 19.28169 -4.392803471.177
 4.25 8.00  4.154  4.154  4.154  4.154  4.154 18.73568 19.54765 -4.126684161.591
 4.30-2.00 -0.497 -0.497 -0.497 -0.497 -0.496  9.26007  9.25768-14.41669   0.072
 4.30-1.50 -0.498 -0.498 -0.498 -0.498 -0.497  9.75929  9.75846-13.91578   0.128
 4.30-1.00 -0.497 -0.497 -0.497 -0.497 -0.496 10.25912 10.25888-13.41556   0.227
 4.30-0.50 -0.494 -0.494 -0.494 -0.494 -0.493 10.75884 10.75891-12.91542   0.404
 4.30 0.00 -0.486 -0.486 -0.486 -0.486 -0.485 11.25888 11.25888-12.41533   0.718
 4.30 0.50 -0.471 -0.471 -0.471 -0.471 -0.470 11.75876 11.75899-11.91542   1.276
 4.30 1.00 -0.449 -0.449 -0.449 -0.449 -0.448 12.25864 12.25912-11.41522   2.269
 4.30 1.25 -0.434 -0.434 -0.434 -0.434 -0.433 12.50861 12.50913-11.16513   3.025
 4.30 1.50 -0.413 -0.413 -0.413 -0.413 -0.412 12.75861 12.75914-10.91507   4.034
 4.30 1.75 -0.383 -0.383 -0.383 -0.382 -0.381 13.00862 13.00925-10.66509   5.379
 4.30 2.00 -0.340 -0.340 -0.340 -0.339 -0.338 13.25864 13.25935-10.41510   7.173
 4.30 2.25 -0.280 -0.280 -0.280 -0.279 -0.278 13.50851 13.50936-10.16510   9.564
 4.30 2.50 -0.200 -0.200 -0.199 -0.198 -0.197 13.75838 13.75937 -9.91507  12.752
 4.30 2.75 -0.094 -0.094 -0.094 -0.093 -0.091 14.00827 14.00957 -9.66490  17.003
 4.30 3.00  0.038  0.038  0.038  0.039  0.041 14.25816 14.25983 -9.41465  22.670
 4.30 3.20  0.165  0.166  0.166  0.167  0.169 14.45790 14.46004 -9.21444  28.533
 4.30 3.40  0.312  0.312  0.312  0.313  0.315 14.65754 14.66029 -9.01416  35.908
 4.30 3.60  0.475  0.475  0.476  0.476  0.478 14.85709 14.86063 -8.81376  45.184
 4.30 3.80  0.653  0.654  0.654  0.654  0.656 15.05651 15.06120 -8.61313  56.845
 4.30 4.00  0.842  0.843  0.843  0.843  0.845 15.25576 15.26198 -8.41229  71.499
 4.30 4.20  1.040  1.040  1.040  1.040  1.041 15.45455 15.46317 -8.21112  89.887
 4.30 4.40  1.241  1.241  1.241  1.242  1.243 15.65293 15.66474 -8.00959 112.951
 4.30 4.60  1.446  1.446  1.446  1.446  1.447 15.85085 15.86676 -7.80757 141.855
 4.30 4.80  1.652  1.652  1.652  1.652  1.652 16.04828 16.06922 -7.60507 178.052
 4.30 5.00  1.859  1.859  1.859  1.859  1.860 16.24527 16.27207 -7.40220 223.374
 4.30 5.20  2.068  2.068  2.068  2.068  2.069 16.44192 16.47519 -7.19914 280.134
 4.30 5.40  2.280  2.280  2.280  2.280  2.280 16.63805 16.67874 -6.99569 351.112
 4.30 5.60  2.493  2.493  2.493  2.493  2.493 16.83374 16.88267 -6.79183 439.842
 4.30 5.80  2.705  2.705  2.705  2.705  2.705 17.02861 17.08728 -6.58722 550.448
 4.30 6.00  2.914  2.914  2.914  2.914  2.914 17.22246 17.29270 -6.38174 688.035
 4.30 6.25  3.165  3.165  3.165  3.165  3.165 17.46094 17.55219 -6.12223 905.439
 4.30 6.50  3.403  3.403  3.403  3.403  3.403 17.69452 17.81491 -5.859491184.864
 4.30 6.75  3.615  3.615  3.615  3.615  3.615 17.91976 18.08306 -5.591361535.559
 4.30 7.00  3.807  3.807  3.807  3.807  3.807 18.13609 18.35468 -5.319761969.734
 4.30 7.25  3.968  3.968  3.968  3.968  3.968 18.34049 18.63032 -5.044142492.564
 4.30 7.50  4.112  4.112  4.112  4.112  4.112 18.53479 18.90596 -4.768533117.686
 4.30 7.75  4.235  4.235  4.235  4.235  4.235 18.71980 19.18042 -4.494053857.796
 4.30 8.00  4.350  4.350  4.350  4.350  4.350 18.89526 19.45408 -4.220334721.092
 4.35-2.00 -0.472 -0.472 -0.472 -0.472 -0.471  9.22246  9.19507-14.47939   0.067
 4.35-1.50 -0.481 -0.481 -0.481 -0.481 -0.480  9.71767  9.69992-13.97429   0.117
 4.35-1.00 -0.489 -0.489 -0.489 -0.489 -0.488 10.21299 10.20466-13.46967   0.205
 4.35-0.50 -0.492 -0.492 -0.492 -0.492 -0.491 10.71037 10.70731-12.96698   0.362
 4.35 0.00 -0.489 -0.489 -0.488 -0.488 -0.487 11.20925 11.20844-12.46585   0.641
 4.35 0.50 -0.477 -0.477 -0.477 -0.476 -0.475 11.70893 11.70885-11.96537   1.138
 4.35 1.00 -0.453 -0.453 -0.453 -0.453 -0.452 12.20871 12.20898-11.46534   2.022
 4.35 1.25 -0.437 -0.437 -0.437 -0.436 -0.435 12.45868 12.45904-11.21536   2.696
 4.35 1.50 -0.417 -0.417 -0.417 -0.417 -0.416 12.70868 12.70910-10.96537   3.596
 4.35 1.75 -0.393 -0.393 -0.393 -0.392 -0.392 12.95869 12.95917-10.71523   4.795
 4.35 2.00 -0.361 -0.361 -0.361 -0.360 -0.360 13.20871 13.20925-10.46509   6.393
 4.35 2.25 -0.317 -0.317 -0.317 -0.317 -0.316 13.45861 13.45926-10.21503   8.525
 4.35 2.50 -0.258 -0.258 -0.258 -0.257 -0.256 13.70851 13.70927 -9.96497  11.367
 4.35 2.75 -0.178 -0.178 -0.178 -0.177 -0.176 13.95847 13.95939 -9.71491  15.157
 4.35 3.00 -0.074 -0.074 -0.074 -0.073 -0.071 14.20844 14.20951 -9.46483  20.211
 4.35 3.20  0.029  0.029  0.029  0.030  0.032 14.40826 14.40962 -9.26475  25.441
 4.35 3.40  0.152  0.152  0.152  0.153  0.155 14.60809 14.60972 -9.06464  32.024
 4.35 3.60  0.294  0.294  0.294  0.295  0.297 14.80792 14.80986 -8.86450  40.308
 4.35 3.80  0.454  0.454  0.455  0.455  0.457 15.00778 15.01006 -8.66431  50.735
 4.35 4.00  0.630  0.630  0.630  0.631  0.632 15.20763 15.21032 -8.46407  63.855
 4.35 4.20  0.818  0.818  0.818  0.819  0.821 15.40726 15.41065 -8.26374  80.356
 4.35 4.40  1.016  1.016  1.016  1.017  1.018 15.60671 15.61111 -8.06326 101.106
 4.35 4.60  1.221  1.221  1.221  1.221  1.222 15.80602 15.81176 -7.86262 127.188
 4.35 4.80  1.431  1.431  1.431  1.431  1.432 16.00508 16.01275 -7.66167 159.946
 4.35 5.00  1.643  1.643  1.643  1.643  1.644 16.20385 16.21405 -7.46042 201.070
 4.35 5.20  1.857  1.857  1.857  1.857  1.857 16.40204 16.41577 -7.25866 252.599
 4.35 5.40  2.071  2.071  2.071  2.071  2.072 16.59967 16.61797 -7.05639 317.131
 4.35 5.60  2.286  2.286  2.286  2.286  2.286 16.79672 16.82071 -6.85359 397.893
 4.35 5.80  2.501  2.501  2.501  2.501  2.501 16.99305 17.02410 -6.65016 498.824
 4.35 6.00  2.717  2.717  2.717  2.717  2.717 17.18865 17.22814 -6.44612 624.828
 4.35 6.25  2.987  2.987  2.987  2.987  2.987 17.43211 17.48405 -6.19026 826.958
 4.35 6.50  3.251  3.251  3.251  3.251  3.251 17.67367 17.74147 -5.932931092.034
 4.35 6.75  3.503  3.503  3.503  3.503  3.503 17.91184 18.00143 -5.672931436.462
 4.35 7.00  3.743  3.743  3.743  3.743  3.743 18.14551 18.26435 -5.409941879.760
 4.35 7.25  3.957  3.957  3.957  3.957  3.957 18.37130 18.53197 -5.142362437.914
 4.35 7.50  4.154  4.154  4.154  4.154  4.154 18.58894 18.80277 -4.871603132.394
 4.35 7.75  4.322  4.322  4.322  4.322  4.322 18.79634 19.07603 -4.598363977.283
 4.35 8.00  4.475  4.475  4.475  4.475  4.475 18.99419 19.35199 -4.322394994.742
 4.40-2.00 -0.463 -0.463 -0.463 -0.463 -0.462  9.17696  9.14019-14.53417   0.060
 4.40-1.50 -0.464 -0.464 -0.464 -0.463 -0.463  9.67633  9.64068-14.03367   0.107
 4.40-1.00 -0.465 -0.465 -0.465 -0.465 -0.464 10.17522 10.14208-13.53224   0.190
 4.40-0.50 -0.470 -0.470 -0.470 -0.469 -0.469 10.67201 10.64532-13.02905   0.335
 4.40 0.00 -0.476 -0.476 -0.476 -0.475 -0.474 11.16732 11.15045-12.52389   0.586
 4.40 0.50 -0.475 -0.475 -0.475 -0.475 -0.473 11.66266 11.65504-12.01927   1.027
 4.40 1.00 -0.460 -0.460 -0.460 -0.459 -0.458 12.16017 12.15776-11.51670   1.811
 4.40 1.25 -0.445 -0.445 -0.444 -0.444 -0.443 12.40957 12.40826-11.26616   2.409
 4.40 1.50 -0.424 -0.424 -0.424 -0.424 -0.423 12.65916 12.65858-11.01579   3.208
 4.40 1.75 -0.399 -0.399 -0.399 -0.399 -0.398 12.90885 12.90881-10.76548   4.275
 4.40 2.00 -0.369 -0.369 -0.369 -0.369 -0.368 13.15866 13.15897-10.51527   5.699
 4.40 2.25 -0.332 -0.332 -0.332 -0.331 -0.330 13.40862 13.40907-10.26522   7.599
 4.40 2.50 -0.284 -0.284 -0.284 -0.284 -0.283 13.65858 13.65915-10.01516  10.132
 4.40 2.75 -0.222 -0.222 -0.222 -0.222 -0.221 13.90847 13.90921 -9.76508  13.510
 4.40 3.00 -0.141 -0.141 -0.140 -0.140 -0.139 14.15836 14.15927 -9.51499  18.015
 4.40 3.20 -0.058 -0.058 -0.057 -0.057 -0.056 14.35830 14.35936 -9.31492  22.677
 4.40 3.40  0.042  0.042  0.043  0.043  0.044 14.55823 14.55948 -9.11484  28.546
 4.40 3.60  0.163  0.163  0.163  0.164  0.165 14.75817 14.75960 -8.91472  35.933
 4.40 3.80  0.303  0.303  0.303  0.304  0.305 14.95812 14.95973 -8.71457  45.232
 4.40 4.00  0.462  0.462  0.462  0.462  0.464 15.15806 15.15987 -8.51442  56.937
 4.40 4.20  0.636  0.636  0.637  0.637  0.638 15.35785 15.36002 -8.31427  71.665
 4.40 4.40  0.824  0.824  0.824  0.825  0.826 15.55759 15.56020 -8.11411  90.198
 4.40 4.60  1.021  1.021  1.022  1.022  1.023 15.75730 15.76045 -7.91389 113.519
 4.40 4.80  1.226  1.226  1.227  1.227  1.228 15.95696 15.96085 -7.71351 142.857
 4.40 5.00  1.437  1.437  1.437  1.437  1.438 16.15655 16.16137 -7.51300 179.758
 4.40 5.20  1.651  1.651  1.652  1.652  1.652 16.35591 16.36199 -7.31240 226.134
 4.40 5.40  1.869  1.869  1.869  1.869  1.870 16.55501 16.56283 -7.11158 284.389
 4.40 5.60  2.088  2.088  2.088  2.089  2.089 16.75381 16.76398 -6.91043 357.523
 4.40 5.80  2.309  2.309  2.309  2.309  2.309 16.95209 16.96569 -6.70875 449.201
 4.40 6.00  2.530  2.530  2.530  2.530  2.530 17.14983 17.16791 -6.50654 564.040
 4.40 6.25  2.807  2.807  2.807  2.807  2.807 17.39582 17.42168 -6.25281 748.696
 4.40 6.50  3.083  3.083  3.083  3.083  3.083 17.64038 17.67669 -5.99784 992.182
 4.40 6.75  3.356  3.356  3.356  3.356  3.356 17.88329 17.93316 -5.741381312.386
 4.40 7.00  3.621  3.621  3.621  3.621  3.621 18.12385 18.19145 -5.483071731.282
 4.40 7.25  3.870  3.870  3.870  3.870  3.870 18.36099 18.45210 -5.222262274.696
 4.40 7.50  4.108  4.108  4.108  4.108  4.108 18.59362 18.71559 -4.958612973.127
 4.40 7.75  4.320  4.320  4.320  4.320  4.320 18.81862 18.98303 -4.691243852.369
 4.40 8.00  4.517  4.517  4.517  4.517  4.517 19.03703 19.25406 -4.420454954.153
 4.45-2.00 -0.463 -0.462 -0.462 -0.462 -0.461  9.12710  9.08991-14.58436   0.054
 4.45-1.50 -0.462 -0.462 -0.462 -0.462 -0.461  9.62696  9.58995-14.08439   0.096
 4.45-1.00 -0.462 -0.462 -0.462 -0.462 -0.461 10.12678 10.09026-13.58419   0.171
 4.45-0.50 -0.462 -0.461 -0.461 -0.461 -0.460 10.62665 10.59028-13.08402   0.303
 4.45 0.00 -0.461 -0.460 -0.460 -0.460 -0.459 11.12613 11.09096-12.58319   0.538
 4.45 0.50 -0.458 -0.458 -0.458 -0.458 -0.457 11.62418 11.59306-12.08129   0.951
 4.45 1.00 -0.450 -0.450 -0.450 -0.450 -0.449 12.12024 12.09726-11.57708   1.669
 4.45 1.25 -0.441 -0.441 -0.441 -0.441 -0.440 12.36773 12.34988-11.32447   2.207
 4.45 1.50 -0.427 -0.427 -0.426 -0.426 -0.425 12.61521 12.60249-11.07186   2.919
 4.45 1.75 -0.405 -0.405 -0.405 -0.405 -0.403 12.86306 12.85471-10.81973   3.865
 4.45 2.00 -0.377 -0.377 -0.377 -0.376 -0.375 13.11126 13.10653-10.56799   5.124
 4.45 2.25 -0.341 -0.341 -0.340 -0.340 -0.339 13.36018 13.35754-10.31688   6.807
 4.45 2.50 -0.297 -0.296 -0.296 -0.296 -0.295 13.60949 13.60821-10.06611   9.054
 4.45 2.75 -0.242 -0.242 -0.242 -0.242 -0.241 13.85917 13.85860 -9.81560  12.056
 4.45 3.00 -0.174 -0.174 -0.174 -0.174 -0.173 14.10890 14.10890 -9.56527  16.063
 4.45 3.20 -0.106 -0.106 -0.106 -0.106 -0.105 14.30869 14.30912 -9.36516  20.217
 4.45 3.40 -0.023 -0.023 -0.023 -0.023 -0.022 14.50850 14.50931 -9.16505  25.447
 4.45 3.60  0.076  0.076  0.077  0.077  0.078 14.70838 14.70942 -8.96492  32.032
 4.45 3.80  0.197  0.197  0.197  0.197  0.198 14.90830 14.90950 -8.76478  40.321
 4.45 4.00  0.337  0.337  0.337  0.337  0.338 15.10823 15.10958 -8.56463  50.756
 4.45 4.20  0.496  0.496  0.496  0.496  0.497 15.30807 15.30974 -8.36452  63.888
 4.45 4.40  0.670  0.670  0.670  0.671  0.672 15.50788 15.50992 -8.16440  80.416
 4.45 4.60  0.858  0.858  0.858  0.858  0.859 15.70768 15.71012 -7.96426 101.218
 4.45 4.80  1.056  1.056  1.056  1.056  1.057 15.90746 15.91034 -7.76407 127.399
 4.45 5.00  1.261  1.261  1.261  1.261  1.262 16.10721 16.11059 -7.56384 160.347
 4.45 5.20  1.471  1.472  1.472  1.472  1.472 16.30693 16.31087 -7.36355 201.794
 4.45 5.40  1.686  1.686  1.686  1.687  1.687 16.50658 16.51121 -7.16316 253.924
 4.45 5.60  1.905  1.905  1.905  1.905  1.905 16.70612 16.71166 -6.96266 319.483
 4.45 5.80  2.125  2.125  2.125  2.125  2.126 16.90543 16.91235 -6.76193 401.882
 4.45 6.00  2.348  2.348  2.348  2.348  2.349 17.10449 17.11328 -6.56098 505.406
 4.45 6.25  2.629  2.629  2.629  2.629  2.630 17.35271 17.36501 -6.30927 672.591
 4.45 6.50  2.912  2.912  2.912  2.912  2.912 17.60010 17.61753 -6.05680 894.222
 4.45 6.75  3.195  3.195  3.195  3.195  3.196 17.84615 17.87129 -5.803061187.140
 4.45 7.00  3.477  3.477  3.477  3.477  3.477 18.09061 18.12646 -5.547911573.141
 4.45 7.25  3.751  3.751  3.751  3.751  3.751 18.33299 18.38336 -5.291022079.404
 4.45 7.50  4.013  4.013  4.013  4.013  4.013 18.57264 18.64237 -5.032032739.893
 4.45 7.75  4.256  4.256  4.256  4.256  4.256 18.80793 18.90426 -4.770183592.609
 4.45 8.00  4.487  4.487  4.487  4.487  4.487 19.03941 19.16879 -4.505714690.461
 4.50-2.00 -0.462 -0.462 -0.462 -0.462 -0.461  9.07700  9.03981-14.63433   0.048
 4.50-1.50 -0.462 -0.462 -0.462 -0.462 -0.461  9.57703  9.53995-14.13442   0.086
 4.50-1.00 -0.462 -0.462 -0.462 -0.461 -0.460 10.07700 10.04021-13.63433   0.152
 4.50-0.50 -0.461 -0.461 -0.461 -0.461 -0.460 10.57692 10.53995-13.13436   0.270
 4.50 0.00 -0.460 -0.460 -0.460 -0.460 -0.459 11.07700 11.04021-12.63433   0.481
 4.50 0.50 -0.457 -0.457 -0.457 -0.457 -0.455 11.57669 11.54033-12.13407   0.854
 4.50 1.00 -0.449 -0.449 -0.449 -0.449 -0.448 12.07628 12.04100-11.63358   1.517
 4.50 1.25 -0.442 -0.442 -0.441 -0.441 -0.440 12.32577 12.29149-11.38301   2.020
 4.50 1.50 -0.429 -0.429 -0.429 -0.428 -0.427 12.57496 12.54220-11.13212   2.686
 4.50 1.75 -0.410 -0.410 -0.409 -0.409 -0.408 12.82365 12.79373-10.88066   3.567
 4.50 2.00 -0.382 -0.382 -0.381 -0.381 -0.380 13.07188 13.04571-10.62875   4.729
 4.50 2.25 -0.345 -0.345 -0.344 -0.344 -0.343 13.31940 13.29822-10.37621   6.255
 4.50 2.50 -0.299 -0.299 -0.299 -0.299 -0.298 13.56691 13.55072-10.12367   8.273
 4.50 2.75 -0.247 -0.247 -0.246 -0.246 -0.245 13.81450 13.80312 -9.87121  10.946
 4.50 3.00 -0.184 -0.184 -0.184 -0.184 -0.183 14.06221 14.05538 -9.61889  14.489
 4.50 3.20 -0.125 -0.125 -0.125 -0.124 -0.124 14.26103 14.25662 -9.41768  18.164
 4.50 3.40 -0.054 -0.054 -0.054 -0.054 -0.053 14.46013 14.45760 -9.21675  22.792
 4.50 3.60  0.029  0.029  0.030  0.030  0.031 14.65955 14.65830 -9.01612  28.629
 4.50 3.80  0.132  0.132  0.132  0.132  0.133 14.85914 14.85882 -8.81565  35.988
 4.50 4.00  0.253  0.253  0.253  0.253  0.254 15.05881 15.05918 -8.61529  45.265
 4.50 4.20  0.394  0.394  0.394  0.394  0.395 15.25849 15.25938 -8.41499  56.966
 4.50 4.40  0.553  0.553  0.553  0.554  0.554 15.45823 15.45957 -8.21474  71.697
 4.50 4.60  0.728  0.728  0.729  0.729  0.730 15.65802 15.65980 -8.01455  90.242
 4.50 4.80  0.917  0.917  0.917  0.917  0.918 15.85784 15.86006 -7.81438 113.585
 4.50 5.00  1.114  1.114  1.115  1.115  1.115 16.05767 16.06032 -7.61421 142.966
 4.50 5.20  1.320  1.320  1.320  1.320  1.320 16.25744 16.26049 -7.41399 179.937
 4.50 5.40  1.530  1.530  1.530  1.530  1.531 16.45717 16.46066 -7.21372 226.457
 4.50 5.60  1.745  1.745  1.745  1.745  1.746 16.65688 16.66090 -7.01341 284.992
 4.50 5.80  1.963  1.963  1.963  1.963  1.964 16.85655 16.86131 -6.81305 358.631
 4.50 6.00  2.184  2.184  2.184  2.184  2.184 17.05614 17.06183 -6.61261 451.255
 4.50 6.25  2.463  2.463  2.463  2.463  2.463 17.30527 17.31262 -6.36178 601.174
 4.50 6.50  2.744  2.744  2.744  2.744  2.744 17.55400 17.56372 -6.11059 800.557
 4.50 6.75  3.030  3.030  3.030  3.030  3.031 17.80221 17.81554 -5.858811065.335
 4.50 7.00  3.319  3.319  3.319  3.319  3.319 18.04961 18.06819 -5.606251416.326
 4.50 7.25  3.605  3.605  3.605  3.605  3.605 18.29544 18.32203 -5.352361879.799
 4.50 7.50  3.886  3.886  3.886  3.886  3.886 18.53945 18.57738 -5.096912489.846
 4.50 7.75  4.155  4.155  4.155  4.155  4.155 18.78071 18.83507 -4.839173287.114
 4.50 8.00  4.408  4.408  4.408  4.408  4.408 19.01953 19.09482 -4.579384327.292
 4.55-2.00 -0.462 -0.462 -0.462 -0.462 -0.461  9.02694  8.98998-14.68445   0.043
 4.55-1.50 -0.462 -0.462 -0.462 -0.462 -0.461  9.52699  9.48996-14.18442   0.076
 4.55-1.00 -0.462 -0.462 -0.462 -0.461 -0.461 10.02694  9.98998-13.68445   0.136
 4.55-0.50 -0.461 -0.461 -0.461 -0.461 -0.460 10.52699 10.48996-13.18436   0.241
 4.55 0.00 -0.461 -0.460 -0.460 -0.460 -0.459 11.02694 10.99003-12.68424   0.429
 4.55 0.50 -0.459 -0.459 -0.458 -0.458 -0.457 11.52699 11.49010-12.18429   0.762
 4.55 1.00 -0.454 -0.454 -0.454 -0.453 -0.452 12.02694 11.99016-11.68424   1.355
 4.55 1.25 -0.449 -0.449 -0.449 -0.449 -0.448 12.27686 12.24020-11.43415   1.806
 4.55 1.50 -0.442 -0.442 -0.442 -0.441 -0.440 12.52673 12.49024-11.18402   2.408
 4.55 1.75 -0.429 -0.429 -0.429 -0.429 -0.427 12.77648 12.74046-10.93386   3.209
 4.55 2.00 -0.410 -0.409 -0.409 -0.409 -0.407 13.02612 12.99083-10.68361   4.276
 4.55 2.25 -0.379 -0.379 -0.379 -0.379 -0.377 13.27568 13.24133-10.43311   5.693
 4.55 2.50 -0.336 -0.336 -0.336 -0.335 -0.334 13.52505 13.49206-10.18230   7.574
 4.55 2.75 -0.277 -0.277 -0.277 -0.276 -0.275 13.77397 13.74337 -9.93100  10.061
 4.55 3.00 -0.203 -0.203 -0.203 -0.202 -0.201 14.02243 13.99515 -9.67923  13.346
 4.55 3.20 -0.134 -0.134 -0.134 -0.134 -0.133 14.22044 14.19710 -9.47721  16.696
 4.55 3.40 -0.060 -0.059 -0.059 -0.059 -0.058 14.41845 14.39909 -9.27519  20.886
 4.55 3.60  0.022  0.022  0.022  0.022  0.023 14.61649 14.60112 -9.07318  26.125
 4.55 3.80  0.114  0.114  0.114  0.114  0.115 14.81462 14.80315 -8.87117  32.677
 4.55 4.00  0.219  0.219  0.219  0.219  0.220 15.01284 15.00518 -8.66918  40.873
 4.55 4.20  0.340  0.341  0.341  0.341  0.342 15.21142 15.20658 -8.46782  51.211
 4.55 4.40  0.480  0.480  0.480  0.480  0.481 15.41024 15.40768 -8.26673  64.230
 4.55 4.60  0.637  0.637  0.637  0.638  0.638 15.60934 15.60845 -8.06589  80.661
 4.55 4.80  0.811  0.811  0.811  0.811  0.812 15.80867 15.80901 -7.86523 101.391
 4.55 5.00  0.997  0.997  0.997  0.997  0.997 16.00817 16.00945 -7.66474 127.523
 4.55 5.20  1.193  1.193  1.193  1.193  1.194 16.20785 16.20978 -7.46447 160.475
 4.55 5.40  1.397  1.397  1.397  1.397  1.397 16.40757 16.41011 -7.26419 201.948
 4.55 5.60  1.606  1.606  1.606  1.607  1.607 16.60734 16.61045 -7.06389 254.146
 4.55 5.80  1.820  1.820  1.820  1.820  1.821 16.80712 16.81079 -6.86353 319.838
 4.55 6.00  2.037  2.037  2.037  2.037  2.038 17.00690 17.01115 -6.66314 402.510
 4.55 6.25  2.312  2.312  2.312  2.312  2.313 17.25627 17.26166 -6.41265 536.421
 4.55 6.50  2.590  2.590  2.590  2.590  2.590 17.50542 17.51229 -6.16210 714.746
 4.55 6.75  2.870  2.870  2.870  2.870  2.870 17.75440 17.76321 -5.91114 952.081
 4.55 7.00  3.156  3.156  3.156  3.156  3.156 18.00303 18.01452 -5.659751267.669
 4.55 7.25  3.443  3.443  3.443  3.443  3.443 18.25099 18.26653 -5.407761686.427
 4.55 7.50  3.731  3.731  3.731  3.731  3.731 18.49804 18.51944 -5.154902241.035
 4.55 7.75  4.012  4.012  4.012  4.012  4.012 18.74324 18.77393 -4.900412971.954
 4.55 8.00  4.285  4.285  4.285  4.285  4.285 18.98691 19.02979 -4.644553934.445
 4.60-2.00 -0.462 -0.462 -0.462 -0.462 -0.461  8.97708  8.93997-14.73448   0.038
 4.60-1.50 -0.462 -0.462 -0.462 -0.462 -0.461  9.47698  9.43996-14.23441   0.068
 4.60-1.00 -0.462 -0.462 -0.462 -0.461 -0.460  9.97704  9.93997-13.73448   0.121
 4.60-0.50 -0.461 -0.461 -0.461 -0.461 -0.460 10.47698 10.43996-13.23441   0.215
 4.60 0.00 -0.461 -0.461 -0.461 -0.460 -0.459 10.97704 10.94002-12.73424   0.382
 4.60 0.50 -0.460 -0.460 -0.460 -0.459 -0.458 11.47698 11.43996-12.23433   0.679
 4.60 1.00 -0.457 -0.457 -0.457 -0.456 -0.455 11.97699 11.94007-11.73424   1.208
 4.60 1.25 -0.454 -0.454 -0.454 -0.454 -0.453 12.22691 12.19009-11.48425   1.610
 4.60 1.50 -0.450 -0.450 -0.450 -0.449 -0.448 12.47683 12.44012-11.23426   2.147
 4.60 1.75 -0.443 -0.443 -0.443 -0.442 -0.441 12.72684 12.69016-10.98426   2.863
 4.60 2.00 -0.432 -0.432 -0.431 -0.431 -0.429 12.97685 12.94022-10.73424   3.817
 4.60 2.25 -0.413 -0.413 -0.413 -0.412 -0.411 13.22671 13.19031-10.48414   5.089
 4.60 2.50 -0.384 -0.384 -0.384 -0.384 -0.382 13.47654 13.44044-10.23396   6.783
 4.60 2.75 -0.342 -0.342 -0.342 -0.341 -0.339 13.72637 13.69065 -9.98369   9.040
 4.60 3.00 -0.282 -0.282 -0.281 -0.281 -0.279 13.97617 13.94097 -9.73330  12.044
 4.60 3.20 -0.219 -0.219 -0.219 -0.218 -0.216 14.17577 14.14137 -9.53290  15.143
 4.60 3.40 -0.142 -0.142 -0.141 -0.141 -0.139 14.37517 14.34196 -9.33236  19.029
 4.60 3.60 -0.049 -0.049 -0.049 -0.048 -0.047 14.57435 14.54283 -9.13150  23.893
 4.60 3.80  0.057  0.057  0.057  0.058  0.059 14.77323 14.74407 -8.93021  29.969
 4.60 4.00  0.177  0.177  0.177  0.177  0.178 14.97183 14.94562 -8.72862  37.555
 4.60 4.20  0.307  0.307  0.307  0.308  0.308 15.16985 15.14772 -8.52662  46.970
 4.60 4.40  0.446  0.446  0.446  0.447  0.447 15.36786 15.34982 -8.32460  58.745
 4.60 4.60  0.594  0.594  0.594  0.595  0.595 15.56588 15.55189 -8.12257  73.473
 4.60 4.80  0.752  0.752  0.752  0.753  0.753 15.76394 15.75389 -7.92054  91.898
 4.60 5.00  0.921  0.921  0.921  0.921  0.921 15.96204 15.95578 -7.71851 114.952
 4.60 5.20  1.100  1.100  1.100  1.100  1.101 16.16067 16.15711 -7.51719 144.013
 4.60 5.40  1.289  1.289  1.289  1.290  1.290 16.35955 16.35819 -7.31611 180.621
 4.60 5.60  1.487  1.487  1.487  1.487  1.487 16.55874 16.55902 -7.11527 226.930
 4.60 5.80  1.692  1.692  1.692  1.692  1.692 16.75811 16.75970 -6.91457 285.424
 4.60 6.00  1.901  1.901  1.901  1.901  1.901 16.95756 16.96028 -6.71399 359.076
 4.60 6.25  2.169  2.169  2.169  2.169  2.169 17.20696 17.21089 -6.46344 478.499
 4.60 6.50  2.440  2.441  2.441  2.441  2.441 17.45637 17.46150 -6.21289 637.640
 4.60 6.75  2.710  2.710  2.710  2.710  2.710 17.70566 17.71219 -5.96218 849.626
 4.60 7.00  2.989  2.989  2.989  2.989  2.989 17.95482 17.96299 -5.711301131.930
 4.60 7.25  3.271  3.271  3.271  3.271  3.271 18.20362 18.21411 -5.460161507.356
 4.60 7.50  3.555  3.555  3.555  3.555  3.555 18.45194 18.46568 -5.208592006.180
 4.60 7.75  3.835  3.835  3.835  3.835  3.835 18.69930 18.71824 -4.956032667.181
 4.60 8.00  4.113  4.113  4.113  4.113  4.113 18.94586 18.97160 -4.702683542.748
 4.65-2.00 -0.462 -0.462 -0.462 -0.461 -0.460  8.92706  8.88997-14.78436   0.034
 4.65-1.50 -0.462 -0.462 -0.462 -0.461 -0.460  9.42700  9.38987-14.28441   0.061
 4.65-1.00 -0.462 -0.462 -0.462 -0.461 -0.460  9.92706  9.88997-13.78436   0.108
 4.65-0.50 -0.461 -0.461 -0.461 -0.461 -0.460 10.42700 10.39005-13.28442   0.191
 4.65 0.00 -0.461 -0.461 -0.461 -0.460 -0.459 10.92706 10.89003-12.78436   0.340
 4.65 0.50 -0.460 -0.460 -0.460 -0.459 -0.458 11.42700 11.39005-12.28433   0.605
 4.65 1.00 -0.458 -0.458 -0.458 -0.458 -0.457 11.92701 11.89009-11.78436   1.076
 4.65 1.25 -0.457 -0.457 -0.457 -0.456 -0.455 12.17701 12.14007-11.53436   1.435
 4.65 1.50 -0.455 -0.455 -0.455 -0.454 -0.453 12.42700 12.39005-11.28433   1.914
 4.65 1.75 -0.451 -0.451 -0.451 -0.450 -0.449 12.67695 12.64010-11.03421   2.552
 4.65 2.00 -0.445 -0.444 -0.444 -0.444 -0.443 12.92691 12.89014-10.78410   3.403
 4.65 2.25 -0.434 -0.434 -0.434 -0.433 -0.432 13.17687 13.14019-10.53413   4.537
 4.65 2.50 -0.417 -0.417 -0.417 -0.416 -0.415 13.42684 13.39023-10.28416   6.049
 4.65 2.75 -0.390 -0.390 -0.390 -0.389 -0.388 13.67678 13.64029-10.03415   8.065
 4.65 3.00 -0.350 -0.350 -0.349 -0.349 -0.347 13.92670 13.89037 -9.78410  10.754
 4.65 3.20 -0.305 -0.305 -0.305 -0.304 -0.302 14.12659 14.09044 -9.58400  13.535
 4.65 3.40 -0.247 -0.247 -0.246 -0.246 -0.244 14.32644 14.29053 -9.38384  17.032
 4.65 3.60 -0.173 -0.173 -0.173 -0.173 -0.171 14.52626 14.49069 -9.18365  21.430
 4.65 3.80 -0.084 -0.083 -0.083 -0.083 -0.081 14.72605 14.69100 -8.98339  26.958
 4.65 4.00  0.024  0.024  0.024  0.025  0.026 14.92578 14.89143 -8.78304  33.902
 4.65 4.20  0.151  0.151  0.151  0.152  0.153 15.12526 15.09199 -8.58247  42.609
 4.65 4.40  0.298  0.298  0.298  0.298  0.300 15.32452 15.29276 -8.38166  53.514
 4.65 4.60  0.461  0.461  0.461  0.461  0.462 15.52348 15.49385 -8.18053  67.146
 4.65 4.80  0.636  0.636  0.637  0.637  0.638 15.72210 15.69532 -7.97905  84.154
 4.65 5.00  0.819  0.819  0.819  0.819  0.820 15.92044 15.89708 -7.77728 105.369
 4.65 5.20  1.005  1.005  1.005  1.005  1.006 16.11832 16.09929 -7.57509 131.723
 4.65 5.40  1.193  1.193  1.193  1.193  1.193 16.31620 16.30150 -7.37290 164.668
 4.65 5.60  1.382  1.382  1.382  1.382  1.382 16.51414 16.50363 -7.17077 205.885
 4.65 5.80  1.574  1.574  1.574  1.574  1.575 16.71228 16.70554 -6.96880 257.563
 4.65 6.00  1.771  1.771  1.771  1.771  1.771 16.91057 16.90725 -6.76700 322.386
 4.65 6.25  2.024  2.024  2.024  2.024  2.024 17.15898 17.15874 -6.51558 428.066
 4.65 6.50  2.283  2.283  2.283  2.283  2.283 17.40773 17.40993 -6.26440 569.277
 4.65 6.75  2.542  2.542  2.542  2.542  2.542 17.65687 17.66087 -6.01343 758.359
 4.65 7.00  2.807  2.807  2.807  2.807  2.807 17.90601 17.91180 -5.762461010.243
 4.65 7.25  3.078  3.078  3.078  3.078  3.078 18.15500 18.16277 -5.511481345.637
 4.65 7.50  3.352  3.352  3.352  3.352  3.352 18.40381 18.41380 -5.260511792.101
 4.65 7.75  3.626  3.626  3.626  3.626  3.626 18.65220 18.66542 -5.008932385.329
 4.65 8.00  3.898  3.898  3.898  3.898  3.898 18.90026 18.91745 -4.756963173.551
 4.70-2.00 -0.462 -0.462 -0.461 -0.461 -0.460  8.87708  8.83998-14.83446   0.030
 4.70-1.50 -0.461 -0.461 -0.461 -0.461 -0.460  9.37694  9.33985-14.33442   0.054
 4.70-1.00 -0.461 -0.461 -0.461 -0.461 -0.460  9.87708  9.83998-13.83446   0.096
 4.70-0.50 -0.461 -0.461 -0.461 -0.461 -0.459 10.37694 10.34005-13.33442   0.171
 4.70 0.00 -0.461 -0.461 -0.461 -0.460 -0.459 10.87703 10.83998-12.83446   0.303
 4.70 0.50 -0.460 -0.460 -0.460 -0.459 -0.458 11.37694 11.34005-12.33433   0.539
 4.70 1.00 -0.459 -0.459 -0.458 -0.458 -0.457 11.87703 11.84004-11.83416   0.959
 4.70 1.25 -0.458 -0.458 -0.457 -0.457 -0.456 12.12698 12.09004-11.58424   1.279
 4.70 1.50 -0.456 -0.456 -0.456 -0.455 -0.454 12.37694 12.34005-11.33432   1.706
 4.70 1.75 -0.454 -0.454 -0.454 -0.453 -0.452 12.62696 12.59008-11.08424   2.275
 4.70 2.00 -0.450 -0.450 -0.450 -0.450 -0.448 12.87697 12.84011-10.83416   3.033
 4.70 2.25 -0.445 -0.445 -0.445 -0.444 -0.443 13.12696 13.09008-10.58420   4.044
 4.70 2.50 -0.435 -0.435 -0.435 -0.435 -0.433 13.37694 13.34005-10.33423   5.392
 4.70 2.75 -0.420 -0.420 -0.420 -0.419 -0.418 13.62688 13.59014-10.08421   7.190
 4.70 3.00 -0.395 -0.395 -0.395 -0.395 -0.393 13.87680 13.84023 -9.83416   9.587
 4.70 3.20 -0.366 -0.366 -0.366 -0.366 -0.364 14.07671 14.04024 -9.63412  12.068
 4.70 3.40 -0.327 -0.327 -0.327 -0.326 -0.325 14.27662 14.24024 -9.43407  15.190
 4.70 3.60 -0.275 -0.275 -0.275 -0.274 -0.272 14.47656 14.44031 -9.23402  19.120
 4.70 3.80 -0.208 -0.208 -0.208 -0.207 -0.205 14.67653 14.64045 -9.03395  24.064
 4.70 4.00 -0.125 -0.125 -0.125 -0.124 -0.122 14.87651 14.84061 -8.83387  30.286
 4.70 4.20 -0.024 -0.024 -0.024 -0.023 -0.021 15.07637 15.04076 -8.63370  38.111
 4.70 4.40  0.094  0.094  0.095  0.095  0.097 15.27616 15.24094 -8.43345  47.950
 4.70 4.60  0.233  0.233  0.233  0.234  0.236 15.47589 15.44120 -8.23312  60.315
 4.70 4.80  0.390  0.390  0.391  0.391  0.393 15.67551 15.64164 -8.03268  75.839
 4.70 5.00  0.565  0.565  0.565  0.565  0.567 15.87500 15.84223 -7.83209  95.316
 4.70 5.20  0.754  0.754  0.754  0.754  0.755 16.07423 16.04305 -7.63129 119.691
 4.70 5.40  0.954  0.954  0.954  0.955  0.955 16.27317 16.24414 -7.43021 150.165
 4.70 5.60  1.161  1.161  1.161  1.162  1.162 16.47172 16.44570 -7.22871 188.158
 4.70 5.80  1.371  1.371  1.371  1.371  1.372 16.66993 16.64764 -7.02684 235.500
 4.70 6.00  1.580  1.580  1.580  1.580  1.581 16.86794 16.84973 -6.82478 294.541
 4.70 6.25  1.838  1.838  1.838  1.838  1.839 17.11521 17.10249 -6.57195 389.195
 4.70 6.50  2.094  2.094  2.094  2.094  2.095 17.36248 17.35526 -6.31912 514.267
 4.70 6.75  2.350  2.350  2.350  2.350  2.350 17.61028 17.60753 -6.06690 680.811
 4.70 7.00  2.590  2.590  2.590  2.590  2.590 17.85842 17.85944 -5.81503 902.865
 4.70 7.25  2.851  2.851  2.851  2.851  2.851 18.10703 18.11077 -5.563611202.050
 4.70 7.50  3.114  3.114  3.114  3.114  3.114 18.35564 18.36211 -5.312201600.377
 4.70 7.75  3.377  3.377  3.377  3.377  3.377 18.60423 18.61352 -5.060802130.658
 4.70 8.00  3.640  3.640  3.640  3.640  3.640 18.85279 18.86498 -4.809392836.613
 4.75-2.00 -0.462 -0.462 -0.462 -0.461 -0.460  8.82711  8.79000-14.88439   0.027
 4.75-1.50 -0.461 -0.461 -0.461 -0.461 -0.460  9.32695  9.29004-14.38437   0.048
 4.75-1.00 -0.461 -0.461 -0.461 -0.461 -0.459  9.82705  9.79000-13.88439   0.086
 4.75-0.50 -0.461 -0.461 -0.461 -0.460 -0.459 10.32695 10.29003-13.38437   0.152
 4.75 0.00 -0.460 -0.460 -0.460 -0.460 -0.459 10.82705 10.79000-12.88439   0.270
 4.75 0.50 -0.460 -0.460 -0.460 -0.459 -0.458 11.32695 11.29004-12.38437   0.481
 4.75 1.00 -0.459 -0.459 -0.459 -0.458 -0.457 11.82705 11.79007-11.88439   0.855
 4.75 1.25 -0.458 -0.458 -0.458 -0.457 -0.456 12.07700 12.04006-11.63438   1.140
 4.75 1.50 -0.457 -0.457 -0.456 -0.456 -0.455 12.32695 12.29004-11.38437   1.520
 4.75 1.75 -0.455 -0.455 -0.455 -0.454 -0.453 12.57697 12.54006-11.13438   2.027
 4.75 2.00 -0.452 -0.452 -0.452 -0.451 -0.450 12.82698 12.79007-10.88439   2.703
 4.75 2.25 -0.449 -0.449 -0.448 -0.448 -0.447 13.07697 13.04005-10.63434   3.604
 4.75 2.50 -0.443 -0.443 -0.443 -0.442 -0.441 13.32695 13.29003-10.38426   4.806
 4.75 2.75 -0.434 -0.434 -0.434 -0.433 -0.432 13.57690 13.54012-10.13416   6.409
 4.75 3.00 -0.420 -0.420 -0.420 -0.419 -0.418 13.82685 13.79022 -9.88406   8.546
 4.75 3.20 -0.403 -0.403 -0.403 -0.402 -0.401 14.02681 13.99023 -9.68405  10.757
 4.75 3.40 -0.379 -0.379 -0.378 -0.378 -0.376 14.22677 14.19025 -9.48405  13.541
 4.75 3.60 -0.345 -0.345 -0.345 -0.344 -0.342 14.42673 14.39028 -9.28405  17.045
 4.75 3.80 -0.299 -0.299 -0.299 -0.299 -0.297 14.62669 14.59035 -9.08405  21.455
 4.75 4.00 -0.240 -0.240 -0.240 -0.239 -0.238 14.82666 14.79043 -8.88406  27.007
 4.75 4.20 -0.166 -0.166 -0.165 -0.165 -0.163 15.02653 14.99053 -8.68393  33.992
 4.75 4.40 -0.074 -0.074 -0.074 -0.073 -0.071 15.22640 15.19065 -8.48380  42.781
 4.75 4.60  0.035  0.035  0.035  0.036  0.037 15.42630 15.39076 -8.28367  53.840
 4.75 4.80  0.162  0.163  0.163  0.163  0.165 15.62622 15.59087 -8.08353  67.753
 4.75 5.00  0.308  0.308  0.308  0.309  0.310 15.82614 15.79099 -7.88339  85.254
 4.75 5.20  0.470  0.470  0.470  0.470  0.472 16.02590 15.99123 -7.68315 107.246
 4.75 5.40  0.646  0.646  0.646  0.647  0.648 16.22554 16.19159 -7.48280 134.867
 4.75 5.60  0.836  0.836  0.836  0.836  0.837 16.42506 16.39209 -7.28227 169.538
 4.75 5.80  1.037  1.037  1.037  1.037  1.038 16.62440 16.59282 -7.08146 212.981
 4.75 6.00  1.246  1.246  1.246  1.246  1.247 16.82354 16.79379 -6.88041 267.370
 4.75 6.25  1.516  1.516  1.516  1.517  1.517 17.07187 17.04554 -6.62875 354.640
 4.75 6.50  1.792  1.792  1.792  1.792  1.792 17.31973 17.29776 -6.37665 469.653
 4.75 6.75  2.066  2.066  2.066  2.066  2.066 17.56699 17.55064 -6.12380 620.559
 4.75 7.00  2.321  2.321  2.321  2.321  2.321 17.81425 17.80353 -5.87096 819.952
 4.75 7.25  2.584  2.584  2.584  2.584  2.584 18.06157 18.05625 -5.618221083.603
 4.75 7.50  2.845  2.845  2.845  2.845  2.845 18.30899 18.30878 -5.365621432.482
 4.75 7.75  3.102  3.102  3.102  3.102  3.102 18.55692 18.56086 -5.113491902.624
 4.75 8.00  3.358  3.358  3.358  3.358  3.358 18.80523 18.81258 -4.861702535.275
 4.80-2.00 -0.462 -0.462 -0.462 -0.461 -0.461  8.77706  8.73997-14.93442   0.024
 4.80-1.50 -0.462 -0.462 -0.461 -0.461 -0.460  9.27692  9.24005-14.43439   0.043
 4.80-1.00 -0.461 -0.461 -0.461 -0.461 -0.460  9.77706  9.73997-13.93442   0.076
 4.80-0.50 -0.461 -0.461 -0.461 -0.461 -0.460 10.27692 10.24005-13.43439   0.136
 4.80 0.00 -0.461 -0.461 -0.461 -0.460 -0.459 10.77706 10.73997-12.93442   0.241
 4.80 0.50 -0.460 -0.460 -0.460 -0.460 -0.458 11.27692 11.24005-12.43439   0.429
 4.80 1.00 -0.459 -0.459 -0.459 -0.459 -0.457 11.77699 11.74005-11.93442   0.762
 4.80 1.25 -0.458 -0.458 -0.458 -0.458 -0.457 12.02696 11.99005-11.68440   1.016
 4.80 1.50 -0.457 -0.457 -0.457 -0.457 -0.455 12.27692 12.24005-11.43439   1.355
 4.80 1.75 -0.456 -0.456 -0.456 -0.455 -0.454 12.52696 12.49005-11.18440   1.807
 4.80 2.00 -0.454 -0.454 -0.453 -0.453 -0.452 12.77699 12.74005-10.93442   2.409
 4.80 2.25 -0.450 -0.450 -0.450 -0.450 -0.448 13.02696 12.99005-10.68436   3.212
 4.80 2.50 -0.446 -0.446 -0.446 -0.445 -0.444 13.27692 13.24005-10.43427   4.284
 4.80 2.75 -0.440 -0.440 -0.440 -0.439 -0.438 13.52692 13.49013-10.18416   5.712
 4.80 3.00 -0.431 -0.431 -0.431 -0.430 -0.429 13.77692 13.74020 -9.93405   7.617
 4.80 3.20 -0.420 -0.420 -0.420 -0.420 -0.418 13.97683 13.94025 -9.73409   9.588
 4.80 3.40 -0.406 -0.405 -0.405 -0.405 -0.403 14.17674 14.14028 -9.53413  12.070
 4.80 3.60 -0.385 -0.385 -0.384 -0.384 -0.382 14.37669 14.34031 -9.33414  15.194
 4.80 3.80 -0.356 -0.356 -0.355 -0.355 -0.353 14.57670 14.54034 -9.13410  19.125
 4.80 4.00 -0.316 -0.316 -0.316 -0.316 -0.314 14.77670 14.74037 -8.93405  24.074
 4.80 4.20 -0.265 -0.265 -0.264 -0.264 -0.262 14.97661 14.94043 -8.73400  30.302
 4.80 4.40 -0.199 -0.199 -0.198 -0.198 -0.196 15.17651 15.14051 -8.53395  38.141
 4.80 4.60 -0.117 -0.117 -0.116 -0.116 -0.114 15.37645 15.34059 -8.33388  48.007
 4.80 4.80 -0.018 -0.018 -0.017 -0.017 -0.015 15.57643 15.54067 -8.13379  60.424
 4.80 5.00  0.098  0.098  0.098  0.099  0.100 15.77641 15.74076 -7.93368  76.049
 4.80 5.20  0.232  0.232  0.232  0.233  0.234 15.97628 15.94086 -7.73356  95.705
 4.80 5.40  0.383  0.383  0.383  0.384  0.385 16.17611 16.14098 -7.53341 120.430
 4.80 5.60  0.549  0.549  0.549  0.549  0.551 16.37591 16.34115 -7.33322 151.524
 4.80 5.80  0.728  0.728  0.728  0.728  0.729 16.57568 16.54142 -7.13293 190.608
 4.80 6.00  0.917  0.917  0.918  0.918  0.919 16.77539 16.74178 -6.93256 239.718
 4.80 6.25  1.167  1.167  1.167  1.167  1.168 17.02480 16.99240 -6.68190 319.047
 4.80 6.50  1.427  1.427  1.427  1.427  1.427 17.27393 17.24329 -6.43098 424.243
 4.80 6.75  1.697  1.697  1.697  1.698  1.698 17.52256 17.49478 -6.17961 563.278
 4.80 7.00  1.972  1.972  1.972  1.972  1.972 17.77071 17.74679 -5.92775 746.703
 4.80 7.25  2.244  2.244  2.244  2.244  2.244 18.01808 17.99950 -5.67495 987.438
 4.80 7.50  2.519  2.519  2.519  2.519  2.519 18.26529 18.25237 -5.422051304.616
 4.80 7.75  2.787  2.787  2.787  2.787  2.787 18.51245 18.50529 -5.169121722.921
 4.80 8.00  3.048  3.048  3.048  3.048  3.048 18.75952 18.75831 -4.916142274.005
 4.85-2.00 -0.462 -0.462 -0.461 -0.461 -0.460  8.72705  8.68993-14.98422   0.021
 4.85-1.50 -0.461 -0.461 -0.461 -0.461 -0.460  9.22712  9.19005-14.48439   0.038
 4.85-1.00 -0.461 -0.461 -0.461 -0.461 -0.460  9.72705  9.69002-13.98422   0.068
 4.85-0.50 -0.461 -0.461 -0.461 -0.461 -0.460 10.22712 10.19005-13.48439   0.121
 4.85 0.00 -0.461 -0.461 -0.461 -0.461 -0.460 10.72705 10.69002-12.98422   0.215
 4.85 0.50 -0.461 -0.461 -0.461 -0.460 -0.459 11.22711 11.19005-12.48439   0.382
 4.85 1.00 -0.460 -0.460 -0.460 -0.460 -0.458 11.72705 11.69002-11.98422   0.679
 4.85 1.25 -0.459 -0.459 -0.459 -0.459 -0.458 11.97696 11.94003-11.73431   0.906
 4.85 1.50 -0.459 -0.459 -0.459 -0.458 -0.457 12.22686 12.19005-11.48439   1.208
 4.85 1.75 -0.458 -0.457 -0.457 -0.457 -0.456 12.47691 12.44008-11.23431   1.610
 4.85 2.00 -0.456 -0.456 -0.456 -0.455 -0.454 12.72697 12.69011-10.98422   2.147
 4.85 2.25 -0.453 -0.453 -0.453 -0.452 -0.451 12.97692 12.94008-10.73424   2.863
 4.85 2.50 -0.449 -0.449 -0.449 -0.449 -0.447 13.22686 13.19005-10.48426   3.818
 4.85 2.75 -0.444 -0.444 -0.443 -0.443 -0.442 13.47687 13.44012-10.23425   5.091
 4.85 3.00 -0.436 -0.436 -0.436 -0.435 -0.434 13.72689 13.69020 -9.98422   6.789
 4.85 3.20 -0.428 -0.428 -0.428 -0.427 -0.426 13.92689 13.89014 -9.78418   8.546
 4.85 3.40 -0.418 -0.418 -0.417 -0.417 -0.416 14.12687 14.09008 -9.58415  10.758
 4.85 3.60 -0.404 -0.404 -0.403 -0.403 -0.402 14.32683 14.29010 -9.38415  13.542
 4.85 3.80 -0.385 -0.385 -0.385 -0.384 -0.383 14.52678 14.49019 -9.18418  17.047
 4.85 4.00 -0.359 -0.359 -0.359 -0.358 -0.357 14.72673 14.69028 -8.98422  21.459
 4.85 4.20 -0.324 -0.324 -0.324 -0.324 -0.322 14.92668 14.89030 -8.78413  27.012
 4.85 4.40 -0.279 -0.279 -0.279 -0.278 -0.277 15.12663 15.09032 -8.58404  34.000
 4.85 4.60 -0.220 -0.220 -0.220 -0.219 -0.218 15.32658 15.29036 -8.38396  42.797
 4.85 4.80 -0.147 -0.147 -0.147 -0.146 -0.145 15.52653 15.49045 -8.18388  53.869
 4.85 5.00 -0.058 -0.058 -0.057 -0.057 -0.055 15.72648 15.69055 -7.98380  67.803
 4.85 5.20  0.048  0.048  0.048  0.049  0.050 15.92643 15.89068 -7.78372  85.337
 4.85 5.40  0.172  0.172  0.173  0.173  0.175 16.12637 16.09082 -7.58364 107.400
 4.85 5.60  0.314  0.314  0.314  0.315  0.316 16.32627 16.29096 -7.38347 135.162
 4.85 5.80  0.472  0.472  0.472  0.472  0.473 16.52611 16.49111 -7.18322 170.087
 4.85 6.00  0.643  0.643  0.643  0.644  0.645 16.72591 16.69126 -6.98297 214.020
 4.85 6.25  0.873  0.873  0.873  0.874  0.874 16.97565 16.94157 -6.73269 285.146
 4.85 6.50  1.114  1.114  1.114  1.114  1.114 17.22531 17.19201 -6.48241 379.774
 4.85 6.75  1.365  1.365  1.365  1.366  1.366 17.47476 17.44258 -6.23179 505.534
 4.85 7.00  1.628  1.628  1.628  1.628  1.628 17.72395 17.69337 -5.98088 672.422
 4.85 7.25  1.891  1.891  1.891  1.891  1.891 17.97264 17.94467 -5.72964 893.140
 4.85 7.50  2.162  2.162  2.162  2.162  2.162 18.22089 18.19645 -5.477951184.508
 4.85 7.75  2.434  2.434  2.434  2.434  2.435 18.46865 18.44885 -5.225591567.717
 4.85 8.00  2.707  2.707  2.707  2.707  2.707 18.71592 18.70183 -4.972652071.026
 4.90-2.00 -0.462 -0.461 -0.461 -0.461 -0.461  8.67706  8.63998-15.03438   0.019
 4.90-1.50 -0.461 -0.461 -0.461 -0.461 -0.460  9.17696  9.13988-14.53447   0.034
 4.90-1.00 -0.461 -0.461 -0.461 -0.461 -0.460  9.67706  9.63998-14.03438   0.061
 4.90-0.50 -0.461 -0.461 -0.461 -0.461 -0.460 10.17696 10.13988-13.53447   0.108
 4.90 0.00 -0.461 -0.461 -0.461 -0.461 -0.460 10.67706 10.63999-13.03438   0.191
 4.90 0.50 -0.461 -0.461 -0.461 -0.461 -0.460 11.17696 11.13988-12.53432   0.340
 4.90 1.00 -0.461 -0.461 -0.460 -0.460 -0.459 11.67706 11.63998-12.03433   0.605
 4.90 1.25 -0.460 -0.460 -0.460 -0.460 -0.459 11.92701 11.88993-11.78433   0.807
 4.90 1.50 -0.460 -0.460 -0.460 -0.459 -0.459 12.17696 12.13988-11.53432   1.076
 4.90 1.75 -0.459 -0.459 -0.459 -0.459 -0.458 12.42696 12.38998-11.28430   1.435
 4.90 2.00 -0.458 -0.458 -0.458 -0.458 -0.457 12.67697 12.64008-11.03428   1.914
 4.90 2.25 -0.456 -0.456 -0.456 -0.456 -0.455 12.92696 12.89015-10.78430   2.552
 4.90 2.50 -0.454 -0.454 -0.454 -0.453 -0.452 13.17696 13.14019-10.53432   3.403
 4.90 2.75 -0.450 -0.450 -0.449 -0.449 -0.448 13.42696 13.39019-10.28428   4.538
 4.90 3.00 -0.443 -0.443 -0.443 -0.443 -0.442 13.67697 13.64018-10.03423   6.051
 4.90 3.20 -0.436 -0.436 -0.436 -0.436 -0.434 13.87697 13.84018 -9.83421   7.617
 4.90 3.40 -0.427 -0.427 -0.427 -0.426 -0.425 14.07696 14.04019 -9.63418   9.589
 4.90 3.60 -0.415 -0.415 -0.415 -0.415 -0.413 14.27692 14.24021 -9.43416  12.070
 4.90 3.80 -0.400 -0.400 -0.400 -0.400 -0.398 14.47686 14.44025 -9.23413  15.195
 4.90 4.00 -0.381 -0.381 -0.381 -0.381 -0.379 14.67679 14.64028 -9.03409  19.128
 4.90 4.20 -0.356 -0.356 -0.356 -0.356 -0.354 14.87673 14.84025 -8.83407  24.077
 4.90 4.40 -0.324 -0.324 -0.324 -0.324 -0.322 15.07669 15.04021 -8.63404  30.307
 4.90 4.60 -0.283 -0.283 -0.283 -0.282 -0.281 15.27666 15.24024 -8.43399  38.149
 4.90 4.80 -0.230 -0.230 -0.229 -0.229 -0.228 15.47663 15.44036 -8.23392  48.020
 4.90 5.00 -0.163 -0.163 -0.163 -0.162 -0.161 15.67660 15.64048 -8.03386  60.444
 4.90 5.20 -0.081 -0.081 -0.081 -0.080 -0.079 15.87652 15.84062 -7.83381  76.077
 4.90 5.40  0.017  0.017  0.017  0.017  0.019 16.07643 16.04075 -7.63375  95.751
 4.90 5.60  0.133  0.133  0.133  0.134  0.135 16.27634 16.24085 -7.43367 120.511
 4.90 5.80  0.267  0.267  0.268  0.268  0.269 16.47624 16.44092 -7.23354 151.670
 4.90 6.00  0.419  0.419  0.419  0.419  0.420 16.67615 16.64098 -7.03339 190.878
 4.90 6.25  0.628  0.628  0.629  0.629  0.630 16.92599 16.89118 -6.78320 254.394
 4.90 6.50  0.856  0.856  0.856  0.857  0.857 17.17580 17.14145 -6.53298 338.988
 4.90 6.75  1.088  1.088  1.088  1.089  1.089 17.42548 17.39176 -6.28264 451.625
 4.90 7.00  1.339  1.339  1.339  1.340  1.340 17.67505 17.64217 -6.03217 601.498
 4.90 7.25  1.593  1.593  1.593  1.594  1.594 17.92451 17.89278 -5.78158 800.622
 4.90 7.50  1.854  1.854  1.854  1.854  1.854 18.17377 18.14364 -5.530771064.839
 4.90 7.75  2.116  2.116  2.116  2.116  2.116 18.42250 18.39497 -5.279431414.278
 4.90 8.00  2.382  2.382  2.382  2.382  2.382 18.67080 18.64670 -5.027661876.160
 4.95-2.00 -0.462 -0.461 -0.461 -0.461 -0.461  8.62706  8.58995-15.08439   0.017
 4.95-1.50 -0.461 -0.461 -0.461 -0.461 -0.461  9.12710  9.08991-14.58436   0.030
 4.95-1.00 -0.461 -0.461 -0.461 -0.461 -0.461  9.62706  9.58995-14.08439   0.054
 4.95-0.50 -0.461 -0.461 -0.461 -0.461 -0.460 10.12711 10.08990-13.58436   0.096
 4.95 0.00 -0.461 -0.461 -0.461 -0.461 -0.460 10.62706 10.58995-13.08439   0.171
 4.95 0.50 -0.461 -0.461 -0.461 -0.461 -0.460 11.12710 11.08991-12.58436   0.303
 4.95 1.00 -0.461 -0.461 -0.461 -0.460 -0.460 11.62706 11.59006-12.08434   0.540
 4.95 1.25 -0.460 -0.460 -0.460 -0.460 -0.459 11.87708 11.83998-11.83435   0.720
 4.95 1.50 -0.460 -0.460 -0.460 -0.460 -0.459 12.12710 12.08991-11.58436   0.959
 4.95 1.75 -0.460 -0.460 -0.460 -0.459 -0.459 12.37708 12.33998-11.33432   1.279
 4.95 2.00 -0.459 -0.459 -0.459 -0.459 -0.458 12.62706 12.59006-11.08428   1.706
 4.95 2.25 -0.458 -0.458 -0.458 -0.458 -0.457 12.87708 12.83998-10.83432   2.275
 4.95 2.50 -0.457 -0.457 -0.457 -0.456 -0.456 13.12711 13.08991-10.58436   3.033
 4.95 2.75 -0.454 -0.454 -0.454 -0.454 -0.453 13.37704 13.33997-10.33430   4.044
 4.95 3.00 -0.451 -0.450 -0.450 -0.450 -0.449 13.62696 13.59006-10.08423   5.393
 4.95 3.20 -0.446 -0.446 -0.446 -0.445 -0.444 13.82689 13.79014 -9.88422   6.789
 4.95 3.40 -0.439 -0.439 -0.439 -0.439 -0.437 14.02682 13.99022 -9.68420   8.546
 4.95 3.60 -0.430 -0.429 -0.429 -0.429 -0.428 14.22680 14.19027 -9.48418  10.759
 4.95 3.80 -0.417 -0.417 -0.417 -0.416 -0.415 14.42682 14.39028 -9.28416  13.544
 4.95 4.00 -0.400 -0.400 -0.400 -0.400 -0.399 14.62685 14.59028 -9.08413  17.050
 4.95 4.20 -0.379 -0.379 -0.379 -0.379 -0.378 14.82683 14.79027 -8.88409  21.462
 4.95 4.40 -0.353 -0.353 -0.353 -0.353 -0.351 15.02680 14.99026 -8.68405  27.015
 4.95 4.60 -0.320 -0.320 -0.320 -0.320 -0.319 15.22676 15.19031 -8.48401  34.005
 4.95 4.80 -0.280 -0.280 -0.279 -0.279 -0.278 15.42671 15.39041 -8.28396  42.805
 4.95 5.00 -0.229 -0.229 -0.229 -0.228 -0.227 15.62665 15.59051 -8.08391  53.881
 4.95 5.20 -0.166 -0.166 -0.166 -0.165 -0.164 15.82658 15.79055 -7.88383  67.819
 4.95 5.40 -0.089 -0.089 -0.088 -0.088 -0.087 16.02650 15.99059 -7.68374  85.360
 4.95 5.60  0.004  0.004  0.004  0.004  0.005 16.22642 16.19066 -7.48365 107.437
 4.95 5.80  0.115  0.115  0.115  0.115  0.116 16.42633 16.39075 -7.28357 135.221
 4.95 6.00  0.244  0.244  0.244  0.244  0.245 16.62624 16.59084 -7.08349 170.186
 4.95 6.25  0.430  0.430  0.430  0.430  0.431 16.87602 16.84090 -6.83336 226.847
 4.95 6.50  0.640  0.640  0.640  0.640  0.640 17.12581 17.09096 -6.58319 302.342
 4.95 6.75  0.855  0.855  0.855  0.855  0.856 17.37566 17.34127 -6.33298 402.923
 4.95 7.00  1.096  1.096  1.096  1.096  1.096 17.62552 17.59162 -6.08271 536.879
 4.95 7.25  1.343  1.343  1.343  1.343  1.344 17.87524 17.84198 -5.83235 715.155
 4.95 7.50  1.597  1.597  1.597  1.597  1.597 18.12483 18.09237 -5.58187 952.273
 4.95 7.75  1.851  1.851  1.851  1.851  1.851 18.37415 18.34314 -5.331151267.181
 4.95 8.00  2.109  2.109  2.109  2.109  2.109 18.62325 18.59417 -5.080241685.278
 5.00-2.00 -0.461 -0.461 -0.461 -0.461 -0.461  8.57703  8.53995-15.13436   0.015
 5.00-1.50 -0.461 -0.461 -0.461 -0.461 -0.461  9.07700  9.03981-14.63451   0.027
 5.00-1.00 -0.461 -0.461 -0.461 -0.461 -0.461  9.57703  9.53995-14.13436   0.048
 5.00-0.50 -0.461 -0.461 -0.461 -0.461 -0.461 10.07700 10.03981-13.63433   0.086
 5.00 0.00 -0.461 -0.461 -0.461 -0.461 -0.461 10.57703 10.53995-13.13436   0.152
 5.00 0.50 -0.461 -0.461 -0.461 -0.461 -0.460 11.07700 11.03981-12.63433   0.270
 5.00 1.00 -0.461 -0.461 -0.461 -0.461 -0.460 11.57703 11.53995-12.13436   0.481
 5.00 1.25 -0.461 -0.461 -0.461 -0.460 -0.460 11.82702 11.78988-11.88434   0.641
 5.00 1.50 -0.460 -0.460 -0.460 -0.460 -0.460 12.07700 12.03981-11.63433   0.855
 5.00 1.75 -0.460 -0.460 -0.460 -0.460 -0.459 12.32702 12.28995-11.38431   1.140
 5.00 2.00 -0.460 -0.460 -0.460 -0.459 -0.459 12.57703 12.54008-11.13430   1.520
 5.00 2.25 -0.459 -0.459 -0.459 -0.459 -0.458 12.82703 12.79017-10.88431   2.027
 5.00 2.50 -0.458 -0.458 -0.458 -0.458 -0.457 13.07701 13.04021-10.63433   2.703
 5.00 2.75 -0.457 -0.457 -0.457 -0.457 -0.456 13.32696 13.29014-10.38428   3.605
 5.00 3.00 -0.455 -0.455 -0.455 -0.454 -0.454 13.57692 13.54008-10.13424   4.807
 5.00 3.20 -0.452 -0.452 -0.452 -0.452 -0.451 13.77695 13.74013 -9.93428   6.051
 5.00 3.40 -0.448 -0.448 -0.448 -0.448 -0.447 13.97699 13.94018 -9.73431   7.618
 5.00 3.60 -0.442 -0.442 -0.442 -0.442 -0.441 14.17700 14.14021 -9.53429   9.590
 5.00 3.80 -0.433 -0.433 -0.433 -0.433 -0.432 14.37697 14.34021 -9.33421  12.072
 5.00 4.00 -0.421 -0.421 -0.421 -0.421 -0.420 14.57692 14.54020 -9.13413  15.197
 5.00 4.20 -0.405 -0.405 -0.404 -0.404 -0.403 14.77681 14.74020 -8.93413  19.129
 5.00 4.40 -0.383 -0.383 -0.382 -0.382 -0.381 14.97670 14.94021 -8.73414  24.080
 5.00 4.60 -0.354 -0.354 -0.354 -0.354 -0.353 15.17665 15.14026 -8.53410  30.311
 5.00 4.80 -0.319 -0.319 -0.319 -0.319 -0.318 15.37667 15.34036 -8.33402  38.155
 5.00 5.00 -0.277 -0.277 -0.276 -0.276 -0.275 15.57669 15.54045 -8.13395  48.029
 5.00 5.20 -0.225 -0.224 -0.224 -0.224 -0.223 15.77668 15.74052 -7.93387  60.454
 5.00 5.40 -0.161 -0.161 -0.161 -0.161 -0.160 15.97666 15.94058 -7.73380  76.092
 5.00 5.60 -0.085 -0.085 -0.085 -0.085 -0.084 16.17659 16.14062 -7.53373  95.775
 5.00 5.80  0.005  0.005  0.005  0.006  0.007 16.37648 16.34066 -7.33366 120.548
 5.00 6.00  0.114  0.114  0.114  0.114  0.115 16.57634 16.54070 -7.13359 151.726
 5.00 6.25  0.275  0.275  0.275  0.275  0.276 16.82613 16.79083 -6.88350 202.253
 5.00 6.50  0.463  0.463  0.463  0.464  0.464 17.07591 17.04100 -6.63339 269.588
 5.00 6.75  0.671  0.671  0.671  0.671  0.671 17.32584 17.29123 -6.38318 359.321
 5.00 7.00  0.889  0.889  0.889  0.889  0.889 17.57577 17.54145 -6.13295 478.873
 5.00 7.25  1.128  1.128  1.128  1.128  1.129 17.82552 17.79162 -5.88271 638.082
 5.00 7.50  1.377  1.377  1.377  1.377  1.377 18.07518 18.04179 -5.63246 850.039
 5.00 7.75  1.626  1.626  1.626  1.626  1.627 18.32477 18.29226 -5.381981132.049
 5.00 8.00  1.880  1.880  1.880  1.880  1.880 18.57426 18.54295 -5.131361507.195
 5.05-2.00 -0.461 -0.461 -0.461 -0.461 -0.461  8.52711  8.48996-15.18442   0.014
 5.05-1.50 -0.461 -0.461 -0.461 -0.461 -0.461  9.02694  8.98994-14.68445   0.024
 5.05-1.00 -0.461 -0.461 -0.461 -0.461 -0.461  9.52711  9.48996-14.18436   0.043
 5.05-0.50 -0.461 -0.461 -0.461 -0.461 -0.461 10.02694  9.98994-13.68445   0.076
 5.05 0.00 -0.461 -0.461 -0.461 -0.461 -0.461 10.52711 10.48996-13.18436   0.136
 5.05 0.50 -0.461 -0.461 -0.461 -0.461 -0.461 11.02694 10.98994-12.68445   0.241
 5.05 1.00 -0.461 -0.461 -0.461 -0.461 -0.460 11.52711 11.48996-12.18436   0.429
 5.05 1.25 -0.461 -0.461 -0.461 -0.461 -0.460 11.77703 11.73997-11.93440   0.572
 5.05 1.50 -0.461 -0.461 -0.461 -0.461 -0.460 12.02694 11.98998-11.68445   0.762
 5.05 1.75 -0.461 -0.461 -0.461 -0.460 -0.460 12.27696 12.24004-11.43441   1.016
 5.05 2.00 -0.460 -0.460 -0.460 -0.460 -0.460 12.52699 12.49010-11.18436   1.355
 5.05 2.25 -0.460 -0.460 -0.460 -0.460 -0.459 12.77696 12.74006-10.93430   1.807
 5.05 2.50 -0.459 -0.459 -0.459 -0.459 -0.458 13.02694 12.99003-10.68424   2.410
 5.05 2.75 -0.458 -0.458 -0.458 -0.458 -0.457 13.27696 13.24006-10.43427   3.214
 5.05 3.00 -0.457 -0.457 -0.457 -0.457 -0.456 13.52699 13.49010-10.18429   4.285
 5.05 3.20 -0.455 -0.455 -0.455 -0.455 -0.454 13.72698 13.69009 -9.98428   5.394
 5.05 3.40 -0.453 -0.453 -0.453 -0.453 -0.452 13.92696 13.89008 -9.78426   6.790
 5.05 3.60 -0.450 -0.450 -0.450 -0.449 -0.448 14.12692 14.09011 -9.58422   8.547
 5.05 3.80 -0.445 -0.445 -0.445 -0.444 -0.443 14.32689 14.29017 -9.38419  10.760
 5.05 4.00 -0.437 -0.437 -0.437 -0.437 -0.436 14.52686 14.49024 -9.18416  13.545
 5.05 4.20 -0.426 -0.426 -0.426 -0.426 -0.425 14.72689 14.69023 -8.98419  17.051
 5.05 4.40 -0.411 -0.411 -0.411 -0.411 -0.410 14.92692 14.89021 -8.78422  21.463
 5.05 4.60 -0.390 -0.390 -0.390 -0.389 -0.388 15.12690 15.09024 -8.58420  27.018
 5.05 4.80 -0.361 -0.361 -0.361 -0.361 -0.360 15.32681 15.29031 -8.38411  34.010
 5.05 5.00 -0.325 -0.325 -0.325 -0.325 -0.324 15.52673 15.49038 -8.18402  42.812
 5.05 5.20 -0.280 -0.280 -0.280 -0.279 -0.279 15.72665 15.69040 -7.98394  53.888
 5.05 5.40 -0.225 -0.225 -0.225 -0.224 -0.224 15.92657 15.89042 -7.78386  67.830
 5.05 5.60 -0.159 -0.159 -0.159 -0.158 -0.158 16.12652 16.09048 -7.58380  85.377
 5.05 5.80 -0.080 -0.080 -0.080 -0.080 -0.079 16.32650 16.29057 -7.38374 107.463
 5.05 6.00  0.012  0.012  0.012  0.013  0.013 16.52647 16.49066 -7.18369 135.261
 5.05 6.25  0.152  0.152  0.152  0.152  0.153 16.77630 16.74077 -6.93355 180.314
 5.05 6.50  0.319  0.319  0.319  0.320  0.320 17.02612 16.99087 -6.68340 240.359
 5.05 6.75  0.512  0.512  0.512  0.512  0.512 17.27604 17.24104 -6.43328 320.388
 5.05 7.00  0.710  0.710  0.710  0.710  0.711 17.52595 17.49122 -6.18316 427.031
 5.05 7.25  0.940  0.940  0.940  0.940  0.941 17.77563 17.74141 -5.93300 569.089
 5.05 7.50  1.182  1.182  1.182  1.182  1.182 18.02530 17.99162 -5.68277 758.295
 5.05 7.75  1.428  1.428  1.428  1.428  1.428 18.27503 18.24195 -5.432421010.232
 5.05 8.00  1.679  1.679  1.679  1.679  1.679 18.52479 18.49234 -5.181971345.652
 5.10-2.00 -0.461 -0.461 -0.461 -0.460 -0.460  8.47712  8.43996-15.23441   0.012
 5.10-1.50 -0.461 -0.461 -0.461 -0.460 -0.460  8.97704  8.93992-14.73448   0.021
 5.10-1.00 -0.461 -0.461 -0.461 -0.460 -0.460  9.47712  9.43996-14.23441   0.038
 5.10-0.50 -0.461 -0.461 -0.461 -0.460 -0.460  9.97704  9.93992-13.73448   0.068
 5.10 0.00 -0.461 -0.461 -0.461 -0.460 -0.460 10.47712 10.43996-13.23441   0.121
 5.10 0.50 -0.461 -0.461 -0.461 -0.460 -0.460 10.97704 10.93997-12.73448   0.215
 5.10 1.00 -0.461 -0.461 -0.461 -0.460 -0.460 11.47712 11.43996-12.23433   0.382
 5.10 1.25 -0.461 -0.461 -0.461 -0.460 -0.460 11.72706 11.68997-11.98440   0.509
 5.10 1.50 -0.461 -0.461 -0.461 -0.460 -0.460 11.97699 11.93997-11.73448   0.679
 5.10 1.75 -0.461 -0.461 -0.460 -0.460 -0.460 12.22698 12.18997-11.48440   0.906
 5.10 2.00 -0.460 -0.460 -0.460 -0.460 -0.460 12.47698 12.43996-11.23433   1.208
 5.10 2.25 -0.460 -0.460 -0.460 -0.460 -0.460 12.72698 12.68998-10.98428   1.611
 5.10 2.50 -0.460 -0.460 -0.460 -0.460 -0.459 12.97699 12.94002-10.73424   2.148
 5.10 2.75 -0.460 -0.460 -0.459 -0.459 -0.459 13.22699 13.19007-10.48425   2.864
 5.10 3.00 -0.459 -0.459 -0.459 -0.459 -0.458 13.47698 13.44012-10.23426   3.819
 5.10 3.20 -0.458 -0.458 -0.458 -0.458 -0.457 13.67695 13.64010-10.03425   4.807
 5.10 3.40 -0.457 -0.456 -0.456 -0.456 -0.456 13.87692 13.84008 -9.83425   6.052
 5.10 3.60 -0.455 -0.454 -0.454 -0.454 -0.454 14.07692 14.04008 -9.63423   7.618
 5.10 3.80 -0.452 -0.452 -0.452 -0.451 -0.451 14.27695 14.24010 -9.43421   9.590
 5.10 4.00 -0.447 -0.447 -0.447 -0.447 -0.446 14.47698 14.44012 -9.23418  12.073
 5.10 4.20 -0.441 -0.441 -0.441 -0.441 -0.440 14.67691 14.64014 -9.03421  15.198
 5.10 4.40 -0.432 -0.432 -0.431 -0.431 -0.430 14.87684 14.84016 -8.83423  19.131
 5.10 4.60 -0.418 -0.418 -0.418 -0.418 -0.417 15.07681 15.04019 -8.63420  24.082
 5.10 4.80 -0.399 -0.399 -0.399 -0.398 -0.397 15.27682 15.24024 -8.43412  30.315
 5.10 5.00 -0.372 -0.372 -0.372 -0.372 -0.371 15.47683 15.44028 -8.23403  38.161
 5.10 5.20 -0.336 -0.336 -0.336 -0.336 -0.335 15.67675 15.64031 -8.03402  48.035
 5.10 5.40 -0.291 -0.291 -0.291 -0.290 -0.290 15.87667 15.84035 -7.83401  60.463
 5.10 5.60 -0.234 -0.234 -0.234 -0.234 -0.233 16.07661 16.04041 -7.63397  76.106
 5.10 5.80 -0.165 -0.165 -0.165 -0.164 -0.164 16.27658 16.24050 -7.43390  95.796
 5.10 6.00 -0.082 -0.082 -0.082 -0.082 -0.081 16.47654 16.44059 -7.23381 120.579
 5.10 6.25  0.041  0.041  0.041  0.041  0.042 16.72642 16.69068 -6.98367 160.744
 5.10 6.50  0.191  0.191  0.191  0.191  0.192 16.97631 16.94077 -6.73353 214.281
 5.10 6.75  0.367  0.367  0.367  0.367  0.367 17.22621 17.19091 -6.48341 285.644
 5.10 7.00  0.558  0.558  0.558  0.558  0.559 17.47611 17.44107 -6.23329 380.758
 5.10 7.25  0.773  0.773  0.773  0.773  0.773 17.72589 17.69123 -5.98307 507.470
 5.10 7.50  1.007  1.007  1.007  1.007  1.008 17.97566 17.94141 -5.73283 676.276
 5.10 7.75  1.249  1.249  1.249  1.249  1.249 18.22545 18.19168 -5.48258 901.136
 5.10 8.00  1.497  1.497  1.497  1.497  1.497 18.47524 18.44201 -5.232331200.631
 5.15-2.00 -0.460 -0.460 -0.460 -0.460 -0.459  8.42716  8.39005-15.28441   0.011
 5.15-1.50 -0.460 -0.460 -0.460 -0.460 -0.459  8.92706  8.88992-14.78436   0.019
 5.15-1.00 -0.460 -0.460 -0.460 -0.460 -0.459  9.42700  9.39005-14.28441   0.034
 5.15-0.50 -0.460 -0.460 -0.460 -0.460 -0.459  9.92706  9.88992-13.78436   0.061
 5.15 0.00 -0.460 -0.460 -0.460 -0.460 -0.459 10.42700 10.39005-13.28442   0.108
 5.15 0.50 -0.460 -0.460 -0.460 -0.460 -0.459 10.92701 10.88992-12.78436   0.191
 5.15 1.00 -0.460 -0.460 -0.460 -0.460 -0.459 11.42700 11.39005-12.28433   0.340
 5.15 1.25 -0.460 -0.460 -0.460 -0.460 -0.459 11.67701 11.64001-12.03435   0.454
 5.15 1.50 -0.460 -0.460 -0.460 -0.460 -0.459 11.92701 11.88997-11.78436   0.605
 5.15 1.75 -0.460 -0.460 -0.460 -0.460 -0.459 12.17701 12.14001-11.53435   0.807
 5.15 2.00 -0.460 -0.460 -0.460 -0.460 -0.459 12.42700 12.39005-11.28433   1.076
 5.15 2.25 -0.460 -0.460 -0.460 -0.459 -0.459 12.67698 12.64001-11.03435   1.435
 5.15 2.50 -0.460 -0.460 -0.459 -0.459 -0.459 12.92696 12.88997-10.78436   1.914
 5.15 2.75 -0.459 -0.459 -0.459 -0.459 -0.459 13.17698 13.14001-10.53435   2.553
 5.15 3.00 -0.459 -0.459 -0.459 -0.459 -0.458 13.42700 13.39005-10.28433   3.404
 5.15 3.20 -0.459 -0.459 -0.459 -0.458 -0.458 13.62696 13.59004-10.08434   4.285
 5.15 3.40 -0.458 -0.458 -0.458 -0.458 -0.457 13.82693 13.79003 -9.88436   5.394
 5.15 3.60 -0.457 -0.457 -0.457 -0.457 -0.456 14.02693 13.99003 -9.68434   6.790
 5.15 3.80 -0.455 -0.455 -0.455 -0.455 -0.455 14.22696 14.19004 -9.48430   8.548
 5.15 4.00 -0.453 -0.453 -0.453 -0.453 -0.452 14.42700 14.39005 -9.28425  10.761
 5.15 4.20 -0.450 -0.450 -0.450 -0.449 -0.449 14.62694 14.59009 -9.08419  13.546
 5.15 4.40 -0.444 -0.444 -0.444 -0.444 -0.444 14.82689 14.79012 -8.88413  17.052
 5.15 4.60 -0.437 -0.437 -0.437 -0.436 -0.436 15.02685 14.99016 -8.68409  21.466
 5.15 4.80 -0.425 -0.425 -0.425 -0.425 -0.424 15.22684 15.19019 -8.48408  27.021
 5.15 5.00 -0.408 -0.408 -0.408 -0.408 -0.407 15.42684 15.39023 -8.28408  34.015
 5.15 5.20 -0.384 -0.384 -0.384 -0.384 -0.383 15.62676 15.59026 -8.08409  42.816
 5.15 5.40 -0.352 -0.352 -0.352 -0.351 -0.351 15.82669 15.79029 -7.88409  53.895
 5.15 5.60 -0.308 -0.308 -0.308 -0.308 -0.307 16.02662 15.99037 -7.68404  67.840
 5.15 5.80 -0.253 -0.252 -0.252 -0.252 -0.251 16.22656 16.19047 -7.48394  85.394
 5.15 6.00 -0.183 -0.183 -0.183 -0.183 -0.182 16.42651 16.39058 -7.28383 107.488
 5.15 6.25 -0.075 -0.075 -0.075 -0.075 -0.074 16.67645 16.64062 -7.03370 143.297
 5.15 6.50  0.057  0.057  0.057  0.057  0.058 16.92639 16.89065 -6.78357 191.030
 5.15 6.75  0.216  0.216  0.216  0.216  0.216 17.17631 17.14079 -6.53349 254.662
 5.15 7.00  0.400  0.400  0.400  0.400  0.401 17.42619 17.39094 -6.28341 339.478
 5.15 7.25  0.594  0.594  0.594  0.594  0.594 17.67602 17.64109 -6.03325 452.483
 5.15 7.50  0.820  0.820  0.820  0.820  0.820 17.92583 17.89126 -5.78304 603.053
 5.15 7.75  1.057  1.057  1.057  1.057  1.057 18.17561 18.14151 -5.53282 803.665
 5.15 8.00  1.302  1.302  1.302  1.302  1.302 18.42537 18.39182 -5.282581070.927
 5.20-2.00 -0.458 -0.458 -0.458 -0.458 -0.458  8.37712  8.34005-15.33442   0.010
 5.20-1.50 -0.458 -0.458 -0.458 -0.458 -0.458  8.87703  8.83992-14.83446   0.017
 5.20-1.00 -0.458 -0.458 -0.458 -0.458 -0.458  9.37712  9.34005-14.33442   0.030
 5.20-0.50 -0.458 -0.458 -0.458 -0.458 -0.458  9.87703  9.83992-13.83446   0.054
 5.20 0.00 -0.458 -0.458 -0.458 -0.458 -0.458 10.37712 10.34005-13.33442   0.096
 5.20 0.50 -0.458 -0.458 -0.458 -0.458 -0.458 10.87703 10.83992-12.83446   0.171
 5.20 1.00 -0.458 -0.458 -0.458 -0.458 -0.458 11.37712 11.34005-12.33433   0.303
 5.20 1.25 -0.458 -0.458 -0.458 -0.458 -0.458 11.62708 11.59001-12.08439   0.404
 5.20 1.50 -0.458 -0.458 -0.458 -0.458 -0.458 11.87703 11.83998-11.83446   0.540
 5.20 1.75 -0.458 -0.458 -0.458 -0.458 -0.458 12.12708 12.09001-11.58439   0.720
 5.20 2.00 -0.458 -0.458 -0.458 -0.458 -0.458 12.37712 12.34005-11.33432   0.959
 5.20 2.25 -0.458 -0.458 -0.458 -0.458 -0.458 12.62705 12.59001-11.08439   1.279
 5.20 2.50 -0.458 -0.458 -0.458 -0.458 -0.458 12.87697 12.83998-10.83446   1.706
 5.20 2.75 -0.458 -0.458 -0.458 -0.458 -0.458 13.12695 13.09001-10.58439   2.275
 5.20 3.00 -0.458 -0.458 -0.458 -0.458 -0.457 13.37694 13.34005-10.33433   3.034
 5.20 3.20 -0.458 -0.458 -0.458 -0.458 -0.457 13.57695 13.54005-10.13438   3.819
 5.20 3.40 -0.458 -0.458 -0.457 -0.457 -0.457 13.77696 13.74004 -9.93443   4.808
 5.20 3.60 -0.457 -0.457 -0.457 -0.457 -0.456 13.97697 13.94004 -9.73441   6.052
 5.20 3.80 -0.456 -0.456 -0.456 -0.456 -0.456 14.17696 14.14005 -9.53432   7.619
 5.20 4.00 -0.455 -0.455 -0.455 -0.455 -0.454 14.37694 14.34005 -9.33423   9.591
 5.20 4.20 -0.453 -0.453 -0.453 -0.453 -0.453 14.57691 14.54006 -9.13420  12.073
 5.20 4.40 -0.451 -0.451 -0.451 -0.450 -0.450 14.77687 14.74009 -8.93417  15.198
 5.20 4.60 -0.447 -0.446 -0.446 -0.446 -0.446 14.97683 14.94014 -8.73415  19.132
 5.20 4.80 -0.440 -0.440 -0.440 -0.440 -0.439 15.17680 15.14019 -8.53414  24.085
 5.20 5.00 -0.431 -0.431 -0.431 -0.431 -0.430 15.37676 15.34025 -8.33414  30.319
 5.20 5.20 -0.417 -0.417 -0.417 -0.416 -0.416 15.57675 15.54027 -8.13415  38.165
 5.20 5.40 -0.396 -0.396 -0.396 -0.396 -0.395 15.77674 15.74028 -7.93416  48.041
 5.20 5.60 -0.368 -0.368 -0.368 -0.367 -0.367 15.97670 15.94032 -7.73410  60.472
 5.20 5.80 -0.329 -0.329 -0.329 -0.328 -0.328 16.17664 16.14038 -7.53398  76.120
 5.20 6.00 -0.277 -0.277 -0.277 -0.277 -0.276 16.37658 16.34044 -7.33386  95.816
 5.20 6.25 -0.192 -0.192 -0.192 -0.192 -0.191 16.62651 16.59052 -7.08386 127.741
 5.20 6.50 -0.082 -0.082 -0.082 -0.081 -0.081 16.87645 16.84061 -6.83387 170.297
 5.20 6.75  0.054  0.054  0.054  0.054  0.055 17.12633 17.09072 -6.58367 227.029
 5.20 7.00  0.218  0.218  0.218  0.218  0.219 17.37621 17.34084 -6.33348 302.651
 5.20 7.25  0.393  0.393  0.393  0.394  0.394 17.62610 17.59097 -6.08338 403.424
 5.20 7.50  0.606  0.606  0.606  0.606  0.606 17.87599 17.84111 -5.83327 537.714
 5.20 7.75  0.833  0.833  0.833  0.833  0.833 18.12584 18.09134 -5.58308 716.658
 5.20 8.00  1.073  1.073  1.073  1.073  1.073 18.37566 18.34163 -5.33283 955.086
 5.25-2.00 -0.456 -0.456 -0.456 -0.456 -0.456  8.32716  8.29004-15.38437   0.009
 5.25-1.50 -0.456 -0.456 -0.456 -0.456 -0.456  8.82705  8.78993-14.88439   0.015
 5.25-1.00 -0.456 -0.456 -0.456 -0.456 -0.456  9.32715  9.29004-14.38437   0.027
 5.25-0.50 -0.456 -0.456 -0.456 -0.456 -0.456  9.82705  9.78993-13.88439   0.048
 5.25 0.00 -0.456 -0.456 -0.456 -0.456 -0.456 10.32716 10.29003-13.38437   0.086
 5.25 0.50 -0.456 -0.456 -0.456 -0.456 -0.456 10.82705 10.78993-12.88439   0.152
 5.25 1.00 -0.456 -0.456 -0.456 -0.456 -0.456 11.32716 11.29004-12.38437   0.270
 5.25 1.25 -0.456 -0.456 -0.456 -0.456 -0.456 11.57710 11.53998-12.13438   0.360
 5.25 1.50 -0.456 -0.456 -0.456 -0.456 -0.456 11.82705 11.78993-11.88439   0.481
 5.25 1.75 -0.456 -0.456 -0.456 -0.456 -0.456 12.07700 12.03998-11.63438   0.641
 5.25 2.00 -0.456 -0.456 -0.456 -0.456 -0.456 12.32695 12.29004-11.38437   0.855
 5.25 2.25 -0.456 -0.456 -0.456 -0.456 -0.456 12.57697 12.54002-11.13438   1.140
 5.25 2.50 -0.456 -0.456 -0.456 -0.456 -0.456 12.82698 12.79000-10.88439   1.520
 5.25 2.75 -0.456 -0.456 -0.456 -0.456 -0.456 13.07697 13.04002-10.63438   2.027
 5.25 3.00 -0.456 -0.456 -0.456 -0.456 -0.456 13.32695 13.29003-10.38437   2.704
 5.25 3.20 -0.456 -0.456 -0.456 -0.456 -0.456 13.52696 13.49002-10.18438   3.404
 5.25 3.40 -0.456 -0.456 -0.456 -0.456 -0.455 13.72698 13.69001 -9.98439   4.285
 5.25 3.60 -0.456 -0.456 -0.456 -0.456 -0.455 13.92698 13.89001 -9.78436   5.394
 5.25 3.80 -0.455 -0.455 -0.455 -0.455 -0.455 14.12697 14.09002 -9.58431   6.790
 5.25 4.00 -0.455 -0.455 -0.455 -0.455 -0.454 14.32695 14.29004 -9.38426   8.548
 5.25 4.20 -0.454 -0.454 -0.454 -0.454 -0.453 14.52691 14.49005 -9.18431  10.761
 5.25 4.40 -0.453 -0.453 -0.452 -0.452 -0.452 14.72687 14.69007 -8.98436  13.546
 5.25 4.60 -0.450 -0.450 -0.450 -0.450 -0.450 14.92687 14.89011 -8.78434  17.053
 5.25 4.80 -0.447 -0.447 -0.447 -0.447 -0.446 15.12691 15.09018 -8.58425  21.467
 5.25 5.00 -0.442 -0.442 -0.442 -0.442 -0.441 15.32695 15.29026 -8.38416  27.024
 5.25 5.20 -0.434 -0.434 -0.434 -0.434 -0.434 15.52686 15.49027 -8.18412  34.018
 5.25 5.40 -0.423 -0.423 -0.423 -0.423 -0.422 15.72677 15.69028 -7.98408  42.821
 5.25 5.60 -0.406 -0.406 -0.406 -0.406 -0.405 15.92673 15.89032 -7.78404  53.902
 5.25 5.80 -0.382 -0.382 -0.382 -0.381 -0.381 16.12674 16.09040 -7.58399  67.851
 5.25 6.00 -0.348 -0.348 -0.348 -0.348 -0.347 16.32675 16.29048 -7.38395  85.409
 5.25 6.25 -0.289 -0.289 -0.289 -0.289 -0.288 16.57664 16.54049 -7.13383 113.870
 5.25 6.50 -0.207 -0.207 -0.207 -0.207 -0.207 16.82653 16.79050 -6.88372 151.810
 5.25 6.75 -0.100 -0.100 -0.100 -0.100 -0.099 17.07643 17.04059 -6.63368 202.390
 5.25 7.00  0.033  0.033  0.033  0.033  0.034 17.32634 17.29070 -6.38363 269.815
 5.25 7.25  0.191  0.191  0.191  0.191  0.192 17.57622 17.54083 -6.13353 359.672
 5.25 7.50  0.369  0.369  0.369  0.369  0.370 17.82607 17.79099 -5.88339 479.424
 5.25 7.75  0.577  0.577  0.577  0.577  0.578 18.07591 18.04117 -5.63322 639.015
 5.25 8.00  0.803  0.803  0.803  0.803  0.803 18.32572 18.29137 -5.38300 851.682
 5.30-2.00 -0.454 -0.454 -0.454 -0.454 -0.453  8.27715  8.24005-15.43439   0.008
 5.30-1.50 -0.454 -0.454 -0.454 -0.454 -0.453  8.77706  8.73989-14.93442   0.014
 5.30-1.00 -0.454 -0.454 -0.454 -0.454 -0.453  9.27715  9.24005-14.43439   0.024
 5.30-0.50 -0.454 -0.454 -0.454 -0.454 -0.453  9.77706  9.73997-13.93442   0.043
 5.30 0.00 -0.454 -0.454 -0.454 -0.454 -0.453 10.27715 10.24005-13.43439   0.076
 5.30 0.50 -0.454 -0.454 -0.454 -0.454 -0.453 10.77706 10.73997-12.93442   0.136
 5.30 1.00 -0.454 -0.454 -0.454 -0.454 -0.453 11.27715 11.24005-12.43439   0.241
 5.30 1.25 -0.454 -0.454 -0.454 -0.454 -0.453 11.52707 11.49001-12.18440   0.322
 5.30 1.50 -0.454 -0.454 -0.454 -0.454 -0.453 11.77699 11.73997-11.93442   0.429
 5.30 1.75 -0.454 -0.454 -0.454 -0.454 -0.453 12.02707 11.99001-11.68440   0.572
 5.30 2.00 -0.454 -0.454 -0.454 -0.454 -0.453 12.27715 12.24005-11.43439   0.762
 5.30 2.25 -0.454 -0.454 -0.454 -0.454 -0.453 12.52707 12.49001-11.18440   1.016
 5.30 2.50 -0.454 -0.454 -0.454 -0.454 -0.453 12.77699 12.73997-10.93442   1.355
 5.30 2.75 -0.454 -0.454 -0.454 -0.454 -0.453 13.02694 12.99001-10.68435   1.807
 5.30 3.00 -0.454 -0.454 -0.454 -0.454 -0.453 13.27692 13.24005-10.43427   2.410
 5.30 3.20 -0.454 -0.454 -0.454 -0.454 -0.453 13.47695 13.44005-10.23433   3.034
 5.30 3.40 -0.454 -0.454 -0.454 -0.454 -0.453 13.67698 13.64005-10.03439   3.819
 5.30 3.60 -0.454 -0.454 -0.454 -0.454 -0.453 13.87698 13.84005 -9.83439   4.808
 5.30 3.80 -0.454 -0.454 -0.453 -0.453 -0.453 14.07695 14.04005 -9.63433   6.052
 5.30 4.00 -0.453 -0.453 -0.453 -0.453 -0.453 14.27692 14.24005 -9.43427   7.619
 5.30 4.20 -0.453 -0.453 -0.453 -0.453 -0.452 14.47692 14.44007 -9.23433   9.591
 5.30 4.40 -0.452 -0.452 -0.452 -0.452 -0.451 14.67692 14.64011 -9.03439  12.074
 5.30 4.60 -0.451 -0.451 -0.451 -0.451 -0.450 14.87692 14.84016 -8.83437  15.200
 5.30 4.80 -0.449 -0.449 -0.449 -0.449 -0.448 15.07692 15.04023 -8.63426  19.134
 5.30 5.00 -0.446 -0.446 -0.446 -0.446 -0.446 15.27692 15.24030 -8.43415  24.087
 5.30 5.20 -0.442 -0.442 -0.442 -0.442 -0.442 15.47686 15.44026 -8.23410  30.321
 5.30 5.40 -0.436 -0.436 -0.436 -0.436 -0.435 15.67680 15.64022 -8.03406  38.168
 5.30 5.60 -0.427 -0.427 -0.427 -0.426 -0.426 15.87676 15.84022 -7.83404  48.046
 5.30 5.80 -0.413 -0.413 -0.413 -0.412 -0.412 16.07673 16.04025 -7.63403  60.480
 5.30 6.00 -0.393 -0.393 -0.393 -0.392 -0.392 16.27669 16.24030 -7.43403  76.132
 5.30 6.25 -0.355 -0.355 -0.355 -0.355 -0.355 16.52662 16.49037 -7.18404 101.503
 5.30 6.50 -0.301 -0.301 -0.301 -0.301 -0.300 16.77656 16.74044 -6.93405 135.326
 5.30 6.75 -0.225 -0.225 -0.225 -0.225 -0.224 17.02651 16.99050 -6.68386 180.419
 5.30 7.00 -0.125 -0.125 -0.125 -0.125 -0.124 17.27646 17.24055 -6.43368 240.534
 5.30 7.25  0.000  0.000  0.000  0.000  0.001 17.52633 17.49067 -6.18368 320.645
 5.30 7.50  0.143  0.143  0.143  0.143  0.143 17.77619 17.74084 -5.93367 427.421
 5.30 7.75  0.320  0.320  0.320  0.320  0.320 18.02609 17.99105 -5.68350 569.738
 5.30 8.00  0.519  0.519  0.519  0.519  0.519 18.27600 18.24130 -5.43321 759.420
